Title: The Final Season Reimagined: 30 Tidal Disruption Events from the 
       ZTF-I Survey 
Authors: Hammerstein E., van Velzen S., Gezari S., Cenko S.B., Yao Y., Ward C.,
    Frederick S., Villanueva N., Somalwar J.J., Graham M.J., Kulkarni S.R., 
    Stern D., Andreoni I., Bellm E.C., Dekany R., Dhawan S., Drake A.J., 
    Fremling C., Gatkine P., Groom S.L., Ho A.Y.Q., Kasliwal M.M., 
    Karambelkar V., Kool E.C., Masci F.J., Medford M.S., Perley D.A., 
    Purdum J., van Roestel J., Sharma Y., Sollerman J., Taggart K., Yan L.
Table: Data behind Figures 14-16 -- P60 spectrum of ZTF19aakswrb on 20190330
================================================================================
Byte-by-byte Description of file: ZTF19aakswrb_20190330_P60_v1.mrt
--------------------------------------------------------------------------------
   Bytes Format Units         Label    Explanations
--------------------------------------------------------------------------------
   1-  6 F6.1   0.1nm         wave     Wavelength, Angstroms
   8- 16 A9     mW/m2/0.1nm   flux     Flux density, calibrated, erg/cm^2/s/Ang
  18- 26 A9     mW/m2/0.1nm   varflux  Variance uncertainty in flux
--------------------------------------------------------------------------------
3776.7 3.164e-15 1.019e-33 
3802.3 4.089e-15 9.617e-34 
3827.9 4.102e-15 9.046e-34 
3853.4 3.385e-15 8.280e-34 
3879.0 3.409e-15 7.318e-34 
3904.6 4.306e-15 6.264e-34 
3930.1 2.835e-15 5.241e-34 
3955.7 3.114e-15 4.333e-34 
3981.3 2.872e-15 3.573e-34 
4006.8 2.748e-15 2.961e-34 
4032.4 2.358e-15 2.478e-34 
4058.0 3.454e-15 2.100e-34 
4083.6 2.708e-15 1.804e-34 
4109.1 2.583e-15 1.571e-34 
4134.7 2.822e-15 1.387e-34 
4160.3 2.401e-15 1.239e-34 
4185.8 2.969e-15 1.120e-34 
4211.4 2.536e-15 1.022e-34 
4237.0 2.405e-15 9.402e-35 
4262.6 2.875e-15 8.710e-35 
4288.1 3.269e-15 8.114e-35 
4313.7 2.819e-15 7.592e-35 
4339.3 2.751e-15 7.127e-35 
4364.8 2.915e-15 6.707e-35 
4390.4 2.467e-15 6.321e-35 
4416.0 2.570e-15 5.964e-35 
4441.6 2.424e-15 5.630e-35 
4467.1 2.716e-15 5.316e-35 
4492.7 2.406e-15 5.020e-35 
4518.3 2.667e-15 4.740e-35 
4543.8 2.869e-15 4.475e-35 
4569.4 2.501e-15 4.224e-35 
4595.0 2.587e-15 3.988e-35 
4620.5 2.228e-15 3.765e-35 
4646.1 2.450e-15 3.556e-35 
4671.7 2.265e-15 3.360e-35 
4697.3 2.115e-15 3.176e-35 
4722.8 2.272e-15 3.005e-35 
4748.4 2.103e-15 2.845e-35 
4774.0 1.973e-15 2.696e-35 
4799.5 2.008e-15 2.557e-35 
4825.1 2.160e-15 2.427e-35 
4850.7 2.413e-15 2.306e-35 
4876.3 2.055e-15 2.193e-35 
4901.8 2.348e-15 2.088e-35 
4927.4 2.244e-15 1.989e-35 
4953.0 2.402e-15 1.897e-35 
4978.5 2.439e-15 1.811e-35 
5004.1 2.289e-15 1.730e-35 
5029.7 2.399e-15 1.654e-35 
5055.3 2.206e-15 1.582e-35 
5080.8 2.075e-15 1.515e-35 
5106.4 2.178e-15 1.452e-35 
5132.0 2.153e-15 1.392e-35 
5157.5 2.245e-15 1.336e-35 
5183.1 2.042e-15 1.283e-35 
5208.7 2.061e-15 1.233e-35 
5234.2 2.004e-15 1.186e-35 
5259.8 2.003e-15 1.142e-35 
5285.4 1.956e-15 1.100e-35 
5311.0 1.952e-15 1.062e-35 
5336.5 1.860e-15 1.025e-35 
5362.1 1.993e-15 9.906e-36 
5387.7 1.972e-15 9.584e-36 
5413.2 2.203e-15 9.282e-36 
5438.8 2.113e-15 9.000e-36 
5464.4 2.110e-15 8.735e-36 
5490.0 2.183e-15 8.487e-36 
5515.5 2.174e-15 8.256e-36 
5541.1 2.030e-15 8.038e-36 
5566.7 2.392e-15 7.835e-36 
5592.2 2.337e-15 7.644e-36 
5617.8 2.085e-15 7.464e-36 
5643.4 2.003e-15 7.295e-36 
5668.9 2.021e-15 7.135e-36 
5694.5 1.999e-15 6.984e-36 
5720.1 1.942e-15 6.840e-36 
5745.7 2.008e-15 6.703e-36 
5771.2 1.914e-15 6.573e-36 
5796.8 1.854e-15 6.451e-36 
5822.4 1.941e-15 6.335e-36 
5847.9 1.941e-15 6.227e-36 
5873.5 2.102e-15 6.120e-36 
5899.1 2.120e-15 6.011e-36 
5924.7 1.796e-15 5.896e-36 
5950.2 1.902e-15 5.778e-36 
5975.8 1.740e-15 5.661e-36 
6001.4 1.904e-15 5.548e-36 
6026.9 1.709e-15 5.439e-36 
6052.5 1.654e-15 5.333e-36 
6078.1 1.760e-15 5.230e-36 
6103.7 1.771e-15 5.130e-36 
6129.2 1.810e-15 5.032e-36 
6154.8 1.944e-15 4.940e-36 
6180.4 1.599e-15 4.856e-36 
6205.9 1.474e-15 4.787e-36 
6231.5 1.733e-15 4.732e-36 
6257.1 1.654e-15 4.680e-36 
6282.6 1.648e-15 4.614e-36 
6308.2 1.658e-15 4.523e-36 
6333.8 1.505e-15 4.414e-36 
6359.4 1.576e-15 4.303e-36 
6384.9 1.545e-15 4.205e-36 
6410.5 1.487e-15 4.126e-36 
6436.1 1.645e-15 4.063e-36 
6461.6 1.614e-15 4.009e-36 
6487.2 1.472e-15 3.956e-36 
6512.8 1.575e-15 3.897e-36 
6538.4 1.511e-15 3.836e-36 
6563.9 1.531e-15 3.775e-36 
6589.5 1.712e-15 3.720e-36 
6615.1 1.556e-15 3.671e-36 
6640.6 1.591e-15 3.626e-36 
6666.2 1.547e-15 3.586e-36 
6691.8 1.537e-15 3.548e-36 
6717.4 1.565e-15 3.514e-36 
6742.9 1.572e-15 3.491e-36 
6768.5 1.566e-15 3.490e-36 
6794.1 1.576e-15 3.529e-36 
6819.6 1.524e-15 3.616e-36 
6845.2 1.524e-15 3.729e-36 
6870.8 1.526e-15 3.809e-36 
6896.3 1.484e-15 3.797e-36 
6921.9 1.451e-15 3.684e-36 
6947.5 1.471e-15 3.521e-36 
6973.1 1.444e-15 3.361e-36 
6998.6 1.425e-15 3.233e-36 
7024.2 1.449e-15 3.140e-36 
7049.8 1.404e-15 3.074e-36 
7075.3 1.307e-15 3.029e-36 
7100.9 1.385e-15 3.003e-36 
7126.5 1.424e-15 2.994e-36 
7152.1 1.437e-15 2.993e-36 
7177.6 1.489e-15 2.985e-36 
7203.2 1.539e-15 2.956e-36 
7228.8 1.482e-15 2.908e-36 
7254.3 1.543e-15 2.853e-36 
7279.9 1.663e-15 2.798e-36 
7305.5 1.673e-15 2.745e-36 
7331.1 1.797e-15 2.694e-36 
7356.6 1.856e-15 2.646e-36 
7382.2 1.744e-15 2.605e-36 
7407.8 1.672e-15 2.572e-36 
7433.3 1.624e-15 2.549e-36 
7458.9 1.528e-15 2.543e-36 
7484.5 1.505e-15 2.567e-36 
7510.0 1.567e-15 2.653e-36 
7535.6 1.509e-15 2.850e-36 
7561.2 1.432e-15 3.199e-36 
7586.8 1.498e-15 3.673e-36 
7612.3 1.483e-15 4.088e-36 
7637.9 1.410e-15 4.169e-36 
7663.5 1.373e-15 3.874e-36 
7689.0 1.419e-15 3.444e-36 
7714.6 1.418e-15 3.096e-36 
7740.2 1.425e-15 2.892e-36 
7765.8 1.400e-15 2.809e-36 
7791.3 1.380e-15 2.801e-36 
7816.9 1.454e-15 2.834e-36 
7842.5 1.518e-15 2.887e-36 
7868.0 1.447e-15 2.950e-36 
7893.6 1.359e-15 3.020e-36 
7919.2 1.290e-15 3.092e-36 
7944.7 1.298e-15 3.163e-36 
7970.3 1.285e-15 3.231e-36 
7995.9 1.224e-15 3.297e-36 
8021.5 1.262e-15 3.368e-36 
8047.0 1.290e-15 3.454e-36 
8072.6 1.274e-15 3.568e-36 
8098.2 1.364e-15 3.724e-36 
8123.7 1.370e-15 3.920e-36 
8149.3 1.207e-15 4.135e-36 
8174.9 1.169e-15 4.336e-36 
8200.5 1.218e-15 4.496e-36 
8226.0 1.190e-15 4.619e-36 
8251.6 1.224e-15 4.721e-36 
8277.2 1.283e-15 4.813e-36 
8302.7 1.189e-15 4.893e-36 
8328.3 1.082e-15 4.965e-36 
8353.9 1.104e-15 5.043e-36 
8379.5 1.106e-15 5.148e-36 
8405.0 1.096e-15 5.300e-36 
8430.6 1.368e-15 5.511e-36 
8456.2 1.819e-15 5.787e-36 
8481.7 1.830e-15 6.128e-36 
8507.3 1.510e-15 6.533e-36 
8532.9 1.313e-15 7.003e-36 
8558.4 1.248e-15 7.542e-36 
8584.0 1.278e-15 8.152e-36 
8609.6 1.262e-15 8.836e-36 
8635.2 1.128e-15 9.593e-36 
8660.7 1.138e-15 1.042e-35 
8686.3 1.344e-15 1.130e-35 
8711.9 1.479e-15 1.222e-35 
8737.4 1.381e-15 1.315e-35 
8763.0 1.151e-15 1.405e-35 
8788.6 1.022e-15 1.490e-35 
8814.2 9.545e-16 1.567e-35 
8839.7 8.174e-16 1.640e-35 
8865.3 7.581e-16 1.721e-35 
8890.9 9.178e-16 1.832e-35 
8916.4 1.121e-15 1.997e-35 
8942.0 1.106e-15 2.215e-35 
8967.6 1.004e-15 2.438e-35 
8993.2 1.028e-15 2.589e-35 
9018.7 1.089e-15 2.653e-35 
9044.3 1.096e-15 2.715e-35 
9069.9 1.074e-15 2.888e-35 
9095.4 1.001e-15 3.248e-35 
9121.0 8.610e-16 3.820e-35 
9146.6 7.482e-16 4.588e-35 
9172.1 7.561e-16 5.529e-35 
9197.7 8.705e-16 6.699e-35 
9223.3 7.997e-16 8.307e-35 
