Title: The Final Season Reimagined: 30 Tidal Disruption Events from the 
       ZTF-I Survey 
Authors: Hammerstein E., van Velzen S., Gezari S., Cenko S.B., Yao Y., Ward C.,
    Frederick S., Villanueva N., Somalwar J.J., Graham M.J., Kulkarni S.R., 
    Stern D., Andreoni I., Bellm E.C., Dekany R., Dhawan S., Drake A.J., 
    Fremling C., Gatkine P., Groom S.L., Ho A.Y.Q., Kasliwal M.M., 
    Karambelkar V., Kool E.C., Masci F.J., Medford M.S., Perley D.A., 
    Purdum J., van Roestel J., Sharma Y., Sollerman J., Taggart K., Yan L.
Table: Data behind Figures 14-16 -- P60 spectrum of ZTF18abxftqm on 20181026
================================================================================
Byte-by-byte Description of file: ZTF18abxftqm_20181026_P60_v1.mrt
--------------------------------------------------------------------------------
   Bytes Format Units         Label    Explanations
--------------------------------------------------------------------------------
   1-  6 F6.1   0.1nm         wave     Wavelength, Angstroms
   8- 16 A9     mW/m2/0.1nm   flux     Flux density, calibrated, erg/cm^2/s/Ang
  18- 26 A9     mW/m2/0.1nm   varflux  Variance uncertainty in flux
--------------------------------------------------------------------------------
3776.7 4.692e-15 2.148e-30 
3802.3 5.470e-15 1.942e-30 
3827.9 5.713e-15 1.788e-30 
3853.4 5.738e-15 1.646e-30 
3879.0 6.322e-15 1.500e-30 
3904.6 5.245e-15 1.348e-30 
3930.1 5.674e-15 1.195e-30 
3955.7 6.079e-15 1.049e-30 
3981.3 5.799e-15 9.136e-31 
4006.8 5.591e-15 7.941e-31 
4032.4 5.595e-15 6.910e-31 
4058.0 5.094e-15 6.039e-31 
4083.6 4.933e-15 5.312e-31 
4109.1 4.925e-15 4.709e-31 
4134.7 5.420e-15 4.212e-31 
4160.3 4.982e-15 3.801e-31 
4185.8 4.400e-15 3.461e-31 
4211.4 5.283e-15 3.177e-31 
4237.0 5.362e-15 2.940e-31 
4262.6 4.920e-15 2.740e-31 
4288.1 5.293e-15 2.570e-31 
4313.7 5.550e-15 2.422e-31 
4339.3 5.409e-15 2.294e-31 
4364.8 5.604e-15 2.179e-31 
4390.4 5.634e-15 2.075e-31 
4416.0 5.377e-15 1.979e-31 
4441.6 5.751e-15 1.890e-31 
4467.1 4.940e-15 1.805e-31 
4492.7 5.456e-15 1.723e-31 
4518.3 5.408e-15 1.644e-31 
4543.8 5.125e-15 1.566e-31 
4569.4 4.941e-15 1.490e-31 
4595.0 5.270e-15 1.416e-31 
4620.5 4.874e-15 1.344e-31 
4646.1 4.554e-15 1.274e-31 
4671.7 4.827e-15 1.206e-31 
4697.3 4.511e-15 1.140e-31 
4722.8 4.227e-15 1.077e-31 
4748.4 4.772e-15 1.018e-31 
4774.0 4.526e-15 9.609e-32 
4799.5 4.333e-15 9.075e-32 
4825.1 4.736e-15 8.573e-32 
4850.7 4.243e-15 8.105e-32 
4876.3 4.423e-15 7.668e-32 
4901.8 4.451e-15 7.262e-32 
4927.4 4.519e-15 6.886e-32 
4953.0 4.570e-15 6.538e-32 
4978.5 4.545e-15 6.216e-32 
5004.1 4.314e-15 5.919e-32 
5029.7 4.262e-15 5.644e-32 
5055.3 4.514e-15 5.389e-32 
5080.8 4.402e-15 5.154e-32 
5106.4 4.443e-15 4.936e-32 
5132.0 4.175e-15 4.734e-32 
5157.5 4.039e-15 4.546e-32 
5183.1 4.198e-15 4.371e-32 
5208.7 4.095e-15 4.207e-32 
5234.2 4.077e-15 4.053e-32 
5259.8 3.607e-15 3.908e-32 
5285.4 3.777e-15 3.772e-32 
5311.0 3.572e-15 3.643e-32 
5336.5 3.624e-15 3.521e-32 
5362.1 3.634e-15 3.405e-32 
5387.7 3.579e-15 3.294e-32 
5413.2 3.609e-15 3.188e-32 
5438.8 3.577e-15 3.087e-32 
5464.4 3.380e-15 2.990e-32 
5490.0 3.449e-15 2.898e-32 
5515.5 3.232e-15 2.809e-32 
5541.1 3.310e-15 2.724e-32 
5566.7 3.448e-15 2.642e-32 
5592.2 3.124e-15 2.564e-32 
5617.8 3.164e-15 2.489e-32 
5643.4 3.043e-15 2.417e-32 
5668.9 2.930e-15 2.349e-32 
5694.5 2.948e-15 2.284e-32 
5720.1 2.877e-15 2.222e-32 
5745.7 2.837e-15 2.164e-32 
5771.2 2.855e-15 2.109e-32 
5796.8 2.570e-15 2.059e-32 
5822.4 2.852e-15 2.017e-32 
5847.9 2.675e-15 1.989e-32 
5873.5 2.691e-15 1.969e-32 
5899.1 2.765e-15 1.941e-32 
5924.7 2.815e-15 1.892e-32 
5950.2 2.663e-15 1.834e-32 
5975.8 2.559e-15 1.781e-32 
6001.4 2.390e-15 1.740e-32 
6026.9 2.546e-15 1.708e-32 
6052.5 2.470e-15 1.679e-32 
6078.1 2.489e-15 1.654e-32 
6103.7 2.443e-15 1.630e-32 
6129.2 2.499e-15 1.607e-32 
6154.8 2.447e-15 1.587e-32 
6180.4 2.469e-15 1.568e-32 
6205.9 2.535e-15 1.555e-32 
6231.5 2.421e-15 1.553e-32 
6257.1 2.521e-15 1.561e-32 
6282.6 2.444e-15 1.562e-32 
6308.2 2.288e-15 1.539e-32 
6333.8 2.425e-15 1.499e-32 
6359.4 2.576e-15 1.461e-32 
6384.9 2.390e-15 1.435e-32 
6410.5 2.728e-15 1.420e-32 
6436.1 2.577e-15 1.419e-32 
6461.6 2.330e-15 1.429e-32 
6487.2 2.334e-15 1.432e-32 
6512.8 2.263e-15 1.406e-32 
6538.4 2.141e-15 1.359e-32 
6563.9 2.252e-15 1.315e-32 
6589.5 2.345e-15 1.283e-32 
6615.1 2.308e-15 1.258e-32 
6640.6 2.336e-15 1.236e-32 
6666.2 2.159e-15 1.215e-32 
6691.8 2.045e-15 1.193e-32 
6717.4 2.060e-15 1.170e-32 
6742.9 2.083e-15 1.149e-32 
6768.5 2.105e-15 1.130e-32 
6794.1 2.137e-15 1.124e-32 
6819.6 2.111e-15 1.150e-32 
6845.2 2.128e-15 1.212e-32 
6870.8 2.145e-15 1.269e-32 
6896.3 2.184e-15 1.255e-32 
6921.9 2.139e-15 1.180e-32 
6947.5 2.168e-15 1.098e-32 
6973.1 2.173e-15 1.038e-32 
6998.6 2.076e-15 1.001e-32 
7024.2 2.141e-15 9.742e-33 
7049.8 2.126e-15 9.468e-33 
7075.3 2.045e-15 9.215e-33 
7100.9 2.134e-15 9.125e-33 
7126.5 2.133e-15 9.349e-33 
7152.1 2.101e-15 9.887e-33 
7177.6 2.004e-15 1.039e-32 
7203.2 1.925e-15 1.043e-32 
7228.8 2.020e-15 1.011e-32 
7254.3 2.063e-15 9.808e-33 
7279.9 1.893e-15 9.583e-33 
7305.5 1.744e-15 9.308e-33 
7331.1 1.725e-15 8.958e-33 
7356.6 1.802e-15 8.612e-33 
7382.2 1.787e-15 8.334e-33 
7407.8 1.774e-15 8.138e-33 
7433.3 1.785e-15 8.017e-33 
7458.9 1.796e-15 7.958e-33 
7484.5 1.826e-15 7.954e-33 
7510.0 1.796e-15 8.061e-33 
7535.6 1.764e-15 8.526e-33 
7561.2 1.791e-15 9.854e-33 
7586.8 1.698e-15 1.253e-32 
7612.3 1.648e-15 1.561e-32 
7637.9 1.606e-15 1.589e-32 
7663.5 1.568e-15 1.319e-32 
7689.0 1.620e-15 1.051e-32 
7714.6 1.638e-15 8.988e-33 
7740.2 1.626e-15 8.355e-33 
7765.8 1.462e-15 8.173e-33 
7791.3 1.414e-15 8.158e-33 
7816.9 1.431e-15 8.197e-33 
7842.5 1.550e-15 8.271e-33 
7868.0 1.504e-15 8.399e-33 
7893.6 1.497e-15 8.580e-33 
7919.2 1.438e-15 8.761e-33 
7944.7 1.472e-15 8.878e-33 
7970.3 1.504e-15 8.929e-33 
7995.9 1.495e-15 8.941e-33 
8021.5 1.463e-15 8.931e-33 
8047.0 1.480e-15 8.958e-33 
8072.6 1.403e-15 9.159e-33 
8098.2 1.431e-15 9.680e-33 
8123.7 1.548e-15 1.057e-32 
8149.3 1.521e-15 1.162e-32 
8174.9 1.490e-15 1.237e-32 
8200.5 1.447e-15 1.253e-32 
8226.0 1.303e-15 1.235e-32 
8251.6 1.307e-15 1.216e-32 
8277.2 1.411e-15 1.207e-32 
8302.7 1.552e-15 1.204e-32 
8328.3 1.486e-15 1.199e-32 
8353.9 1.286e-15 1.179e-32 
8379.5 1.311e-15 1.151e-32 
8405.0 1.432e-15 1.130e-32 
8430.6 1.386e-15 1.123e-32 
8456.2 1.211e-15 1.133e-32 
8481.7 1.271e-15 1.154e-32 
8507.3 1.273e-15 1.180e-32 
8532.9 1.223e-15 1.209e-32 
8558.4 1.301e-15 1.239e-32 
8584.0 1.287e-15 1.269e-32 
8609.6 1.269e-15 1.301e-32 
8635.2 1.196e-15 1.332e-32 
8660.7 1.230e-15 1.365e-32 
8686.3 1.325e-15 1.398e-32 
8711.9 1.317e-15 1.431e-32 
8737.4 1.275e-15 1.465e-32 
8763.0 1.333e-15 1.500e-32 
8788.6 1.420e-15 1.536e-32 
8814.2 1.276e-15 1.574e-32 
8839.7 1.144e-15 1.616e-32 
8865.3 1.232e-15 1.675e-32 
8890.9 1.243e-15 1.785e-32 
8916.4 1.217e-15 2.012e-32 
8942.0 1.278e-15 2.433e-32 
8967.6 1.396e-15 2.997e-32 
8993.2 1.326e-15 3.355e-32 
9018.7 1.221e-15 3.315e-32 
9044.3 1.128e-15 3.255e-32 
9069.9 1.129e-15 3.495e-32 
9095.4 1.210e-15 4.053e-32 
9121.0 1.207e-15 4.765e-32 
9146.6 1.199e-15 5.270e-32 
9172.1 1.244e-15 5.239e-32 
9197.7 1.229e-15 4.947e-32 
9223.3 1.224e-15 4.982e-32 
