#SIMPLE  =                    T / file does conform to FITS standard             
#BITPIX  =                   16 / number of bits per data pixel                  
#NAXIS   =                    0 / number of data axes                            
#EXTEND  =                    T / FITS dataset may contain extensions            
#COMMENT   FITS (Flexible Image Transport System) format is defined in 'Astronomy
#COMMENT   and Astrophysics', volume 376, page 359; bibcode: 2001A&A...376..359H 
#INSTRUME= 'GMOS-N  '           / Instrument used to acquire data                
#OBJECT  = 'ZTF19acryurj'       / Object Name                                    
#OBSTYPE = 'OBJECT  '           / Observation type                               
#OBSCLASS= 'science '           / Observe class                                  
#GEMPRGID= 'GN-2019B-Q-901'     / Gemini programme ID                            
#OBSID   = 'GN-2019B-Q-901-86'  / Observation ID / Data label                    
#DATALAB = 'GN-2019B-Q-901-86-002' / DHS data label                              
#OBSERVER= 'C. Cunningham'      / Observer                                       
#OBSERVAT= 'Gemini-North'       / Name of telescope (Gemini-North|Gemini-South)  
#TELESCOP= 'Gemini-North'       / Gemini-North                                   
#PARALLAX=                   0. / Parallax of Target                             
#RADVEL  =                   0. / Heliocentric Radial Velocity                   
#EPOCH   =                2000. / Epoch for Target coordinates                   
#EQUINOX =                2000. / Equinox of coordinate system                   
#TRKEQUIN=                2000. / Tracking equinox                               
#SSA     = 'A.Garcia, A. Smith' / SSA                                            
#RA      =            13.593375 / Right Ascension                                
#DEC     =          31.67019444 / Declination of Target                          
#ELEVATIO=     57.7642597222222 / Current Elevation                              
#AZIMUTH =     298.570736111111 / Current Azimuth                                
#CRPA    =     176.289606854486 / Current Cass Rotator Position Angle            
#HA      = '+02:13:52.23'       / Telescope hour angle                           
#LT      = '23:50:28.8'         / Local time at start of observation             
#TRKFRAME= 'FK5     '           / Tracking co-ordinate                           
#DECTRACK=                   0. / Differential tracking rate Dec                 
#TRKEPOCH=         58803.401648 / Differential tracking reference epoch          
#RATRACK =                   0. / Differential tracking rate RA                  
#FRAME   = 'FK5     '           / Target coordinate system                       
#PMDEC   =                   0. / Proper Motion in Declination                   
#PMRA    =                   0. / Proper Motion in RA                            
#WAVELENG=                5200. / Effective Target Wavelength                    
#RAWIQ   = '70-percentile'      / Raw Image Quality                              
#RAWCC   = '50-percentile'      / Raw Cloud Cover                                
#RAWWV   = 'UNKNOWN '           / Raw Water Vapour/Transparency                  
#RAWBG   = 'UNKNOWN '           / Raw Background                                 
#RAWPIREQ= 'YES     '           / PI Requirements Met                            
#RAWGEMQA= 'USABLE  '           / Gemini Quality Assessment                      
#CGUIDMOD= 'Basic   '           / Carousel Mode                                  
#UT      = '09:50:29.8'         / UT at observation start                        
#DATE    = '2019-11-16'         / UT Date of observation (YYYY-MM-DD)            
#M2BAFFLE= 'VISIBLE '           / Position of M2 baffle                          
#M2CENBAF= 'CLOSED  '           / Position of M2 central hole baffle             
#ST      = '03:09:20.7'         / Sidereal time at the start of the exposure     
#XOFFSET =    0.179348604088666 / Telescope offset in x in arcsec                
#YOFFSET =    0.253719685436072 / Telescope offset in y in arcsec                
#POFFSET =    0.179800000527628 / Telescope offset in p in arcsec                
#QOFFSET =    0.253400000743089 / Telescope offset in q in arcsec                
#RAOFFSET=    -0.21955962409205 / Telescope offset in RA in arcsec               
#DECOFFSE=    0.219848065797474 / Telescope offset in DEC in arcsec              
#RATRGOFF=                   0. / Target offset in RA in arcsec                  
#DECTRGOF=                   0. / Target offset in DEC in arcsec                 
#PA      =               279.68 / Sky Position Angle at start of exposure        
#IAA     =              179.898 / Instrument Alignment Angle                     
#SFRT2   =              178.841 / Science fold rotation angle (degrees)          
#SFTILT  =                44.93 / Science fold tilt angle (degrees)              
#SFLINEAR=                  -2. / Science fold linear position (mm)              
#AOFOLD  = 'park-pos.'          / AO Pick-Off Mirror Position                    
#PWFS1_ST= 'parked  '           / PWFS1 probe state (frozen,guiding,parked)      
#PWFS2_ST= 'parked  '           / PWFS2 probe state (frozen,guiding,parked)      
#OIWFS_ST= 'guiding '           / OIWFS probe state (frozen,guiding,parked)      
#AOWFS_ST= 'parked  '           / AOWFS probe state (frozen,guiding,parked)      
#SCIBAND =                    1 / Science Ranking Band                           
#REQIQ   = 'Any     '           / Requested Image Quality                        
#REQCC   = '70-percentile'      / Requested Cloud Cover                          
#REQBG   = 'Any     '           / Requested Background                           
#REQWV   = 'Any     '           / Requested Water Vapour                         
#NUMREQTW=                    1 / Number of Requested Timing Window REQTW entries
#REQMINAM=                   1. / Requested Minimum Airmass                      
#REQMAXAM=                   2. / Requested Maximum Airmass                      
#REQTWS01= '2019-11-16T09:11:43' / Requested Timing Window 01 Start (UTC)        
#REQTWD01=               86400. / Requested Timing Window 01 Duration [seconds]  
#REQTWN01=                    0 / Requested Timing Window 01 Number of Repeats   
#REQTWP01=                   0. / Requested Timing Window 01 Repeat Period [secon
#OIARA   =          13.53047083 / RA of OIWFS guide star                         
#OIARV   =                   0. / OIWFS Heliocentric Radial Velocity             
#OIAWAVEL=                6500. / OIWFS Effective Target Wavelength              
#OIADEC  =          31.65622222 / Declination of OIWFS guide star                
#OIAEPOCH=                2000. / Epoch for OIWFS guide star coordinates         
#OIAEQUIN=                2000. / Equinox for OIWFS guide star coordinates       
#OIAFRAME= 'FK5     '           / OIWFS Target co-ordinate system                
#OIAOBJEC= '609-002575'         / Object Name for OIWFS, Chop A                  
#OIAPMDEC=              -0.0022 / OIWFS Proper Motion in Declination             
#OIAPMRA =              9.0E-05 / OIWFS Proper Motion in RA                      
#OIAPARAL=                   0. / OIWFS Parallax of Target                       
#OIFREQ  =                 200. / OIWFS sampling frequency (Hz)                  
#HUMIDITY=                  49. / The Relative Humidity (fraction, 0..101).      
#TAMBIENT=                   3. / The ambient temp (C).                          
#TAMBIEN2=                 37.4 / The ambient temp (F).                          
#PRESSURE=             465.1736 / The atmospheric pressure (mm Hg).              
#PRESSUR2=               62000. / The atmospheric pressure (Pa).                 
#DEWPOINT=                 -6.8 / The dew point (C).                             
#DEWPOIN2=                19.76 / The dew point (F).                             
#WINDSPEE=                  4.2 / The wind speed (m/s).                          
#WINDSPE2=               9.3954 / The wind speed (mph).                          
#WINDDIRE=                 188. / The wind direction (degrees).                  
#INPORT  =                    5 / Number of ISS port where GMOS was located      
#GMOSCC  = 'GMOS-N (V7-13)'     / GMOS components controller s/w                 
#TIME-OBS= '09:50:29.8'         / Time of observation                            
#PREIMAGE=                    F / MOS pre-imaging                                
#CONID   = 'ARC-III '           / Detector controller ID                         
#DETECTOR= 'GMOS-N + Hamamatsu' / Detector name                                  
#DEWAR   = 'Lab Cryostat'       / Dewar name                                     
#ARRYTMPD=             -102.701 / Array temperature D (Celsius)                  
#ARRYTMPA=              -96.489 / Array temperature A (Celsius)                  
#ARRYTMPB=              -96.117 / Array temperature B (Celsius)                  
#ARRYTMPC=              -95.328 / Array temperature C (Celsius)                  
#ARRYTSET=               -102.7 / Array temperature Setpoint (Celsius)           
#DETSIZE = '[1:6144,1:4224]'    / Detector size                                  
#NCCDS   =                    3 / Number of CCD chips                            
#NAMPS   =                    4 / Number of amplifiers                           
#SHUTTER = 'OPEN    '           / Shutter state during observation               
#AMPINTEG=                11880 / Amplifier integration time                     
#OBSEPOCH=     2019.87381266109 / Epoch at start of exposure                     
#TIMESYS = 'UTC     '           / Time system used                               
#DATE-OBS= '2019-11-16'         / UT Date of observation (YYYY-MM-DD)            
#GMOSTHT = 'WARNING '           / Shutter health                                 
#NSUBEXP =                    1 / Number of sub exposures                        
#UTSTART = '09:50:33.7167'      / UT at observation start                        
#UTEND   = '10:05:33.7167'      / UT at observation end                          
#EXPTIME =                 900. / Exposure time in seconds                       
#ELAPSED =                 900. / Elapsed observation time in seconds            
#DARKTIME=     921.083354949951 / Dark current integration in seconds            
#MASKID  =             10005354 / Mask/IFU barcode                               
#MASKNAME= '1.0arcsec'          / Mask name                                      
#MASKTYP =                    1 / Mask/IFU type (0=none/-1=IFU/1=mask)           
#MASKLOC =                    0 / Mask/IFU location (-1=unknown/0=FP/1=cassette) 
#FILTER1 = 'open1-6 '           / Filter 1 name                                  
#FILTID1 =             20000018 / Filter 1 barcode                               
#FILTER2 = 'open2-8 '           / Filter 2 name                                  
#FILTID2 =             20000008 / Filter 2 barcode                               
#GRATING = 'B600+_G5307'        / Grating name                                   
#GRATID  =             30000018 / Grating barcode                                
#GRWLEN  =                 520. / Grating wavelength at slit (nm)                
#CENTWAVE=                 520. / Central wavelength (nm)                        
#GRORDER =                    1 / Grating order                                  
#GRTILT  =              55.0885 / Grating tilt angle (degrees)                   
#GRSTEP  =            5886.7337 / Requested grating motor step position          
#DTAX    =                 90.8 / Detector translation X position (microns)      
#DTAY    =                68.96 / Detector translation Y position (microns)      
#DTAZ    =                1862. / Detector translation Z position (microns)      
#DTAZST  =                1862. / Focus at observation start (microns)           
#DTAZEN  =                1862. / Focus at observation end (microns)             
#DTAZME  =                1754. / Mean focus during observation (microns)        
#DTMODE  = 'FOLLOW-XY'          / Detector translation stage mode                
#ADCMODE = 'STOP    '           / ADC mode                                       
#GMOSDC  = 'gmosdc-6.10'        / GMOS detector controller s/w                   
#DETTYPE = 'S10892-N'           / Detector array type                            
#DETID   = 'BI13-20-4k-1,BI12-09-4k-2,BI13-18-4k-2' / Chip IDs                   
#EXPOSURE=                 900. / Requested exposure time in seconds             
#ADCUSED =                    1 / ADC used? (0=yes/1=no)                         
#DETNROI =                    1 / No. regions of interest                        
#ADCENPST=                   0. / Start entrance prism angle of ADC              
#ADCENPEN=                   0. / End entrance prism angle of ADC                
#ADCENPME=                   0. / Mean entrance prism angle of ADC               
#ADCEXPST=                   0. / Start exit prism angle of ADC                  
#ADCEXPEN=                   0. / End exit prism angle of ADC                    
#ADCEXPME=                   0. / Mean exit prism angle of ADC                   
#ADCWLEN1=                   0. / Lower wavelength for ADC calculation           
#ADCWLEN2=                   0. / Upper wavelength for ADC calculation           
#DETRO1X =                    1 / ROI 1 X start                                  
#DETRO1XS=                 3072 / ROI 1 X size                                   
#DETRO1Y =                    1 / ROI 1 Y start                                  
#DETRO1YS=                 2112 / ROI 1 Y size                                   
#AIRMASS =                1.204 / Mean airmass for the observation               
#AMSTART =                1.182 / Airmass at start of exposure                   
#AMEND   =                1.227 / Airmass at end of exposure                     
#PROP_MD =                    F / Proprietary Metadata                           
#RELEASE = '2020-11-16'         / End of proprietary period YYY-MM-DD   
#
3623.6072    4.6237e-16
3624.6227    4.6084e-16
3625.6382    4.5908e-16
3626.6537    4.5871e-16
3627.6692    4.5989e-16
3628.6847    4.6002e-16
3629.7002    4.5743e-16
3630.7157    4.6086e-16
3631.7312    4.5835e-16
3632.7468    4.5646e-16
3633.7623    4.5508e-16
3634.7778    4.5392e-16
3635.7933    4.5315e-16
3636.8088    4.4102e-16
3637.8243    3.8644e-16
3638.8398    4.1193e-16
3639.8553    4.3148e-16
3640.8708    4.3450e-16
3641.8863    3.8178e-16
3642.9018    3.9533e-16
3643.9173    4.1296e-16
3644.9328    4.2589e-16
3645.9483    4.0198e-16
3646.9638    3.7017e-16
3647.9793    4.1208e-16
3648.9949    4.3721e-16
3650.0104    3.9680e-16
3651.0259    3.8061e-16
3652.0414    3.7920e-16
3653.0569    3.6119e-16
3654.0724    3.5609e-16
3655.0879    3.8459e-16
3656.1034    4.2433e-16
3657.1189    4.1830e-16
3658.1344    3.8989e-16
3659.1499    3.8307e-16
3660.1654    3.9780e-16
3661.1809    3.9343e-16
3662.1964    4.0096e-16
3663.2119    4.1106e-16
3664.2274    4.1078e-16
3665.2429    3.8663e-16
3666.2585    3.9257e-16
3667.2740    4.0572e-16
3668.2895    4.2250e-16
3669.3050    4.0615e-16
3670.3205    4.1795e-16
3671.3360    3.9589e-16
3672.3515    4.3819e-16
3673.3670    4.0334e-16
3674.3825    3.8024e-16
3675.3980    3.8138e-16
3676.4135    4.1761e-16
3677.4290    4.0504e-16
3678.4445    4.2435e-16
3679.4600    4.0900e-16
3680.4755    3.9873e-16
3681.4910    3.9099e-16
3682.5065    3.9246e-16
3683.5221    3.7370e-16
3684.5376    3.7531e-16
3685.5531    3.7906e-16
3686.5686    4.0557e-16
3687.5841    3.9585e-16
3688.5996    3.7504e-16
3689.6151    3.6989e-16
3690.6306    3.5843e-16
3691.6461    3.7121e-16
3692.6616    3.8142e-16
3693.6771    3.8218e-16
3694.6926    3.9124e-16
3695.7081    3.7225e-16
3696.7236    3.4855e-16
3697.7391    3.6020e-16
3698.7546    3.9010e-16
3699.7701    3.7890e-16
3700.7857    3.7049e-16
3701.8012    3.6254e-16
3702.8167    3.5152e-16
3703.8322    4.0176e-16
3704.8477    3.7187e-16
3705.8632    3.4265e-16
3706.8787    3.8468e-16
3707.8942    3.6733e-16
3708.9097    3.9857e-16
3709.9252    4.1435e-16
3710.9407    4.1633e-16
3711.9562    3.8685e-16
3712.9717    3.8702e-16
3713.9872    4.0032e-16
3715.0027    3.9748e-16
3716.0182    3.9132e-16
3717.0338    3.4237e-16
3718.0493    3.5885e-16
3719.0648    3.6201e-16
3720.0803    3.5800e-16
3721.0958    3.6456e-16
3722.1113    3.6785e-16
3723.1268    3.7510e-16
3724.1423    3.5476e-16
3725.1578    3.5976e-16
3726.1733    3.6606e-16
3727.1888    3.6740e-16
3728.2043    3.7223e-16
3729.2198    3.9280e-16
3730.2353    4.1555e-16
3731.2508    4.0662e-16
3732.2663    3.6252e-16
3733.2818    3.5768e-16
3734.2974    3.9294e-16
3735.3129    4.1695e-16
3736.3284    4.0907e-16
3737.3439    3.8052e-16
3738.3594    3.6346e-16
3739.3749    3.8515e-16
3740.3904    3.8187e-16
3741.4059    3.6333e-16
3742.4214    3.8334e-16
3743.4369    4.0888e-16
3744.4524    3.9169e-16
3745.4679    3.8159e-16
3746.4834    3.6604e-16
3747.4989    3.8684e-16
3748.5144    3.9098e-16
3749.5299    3.9222e-16
3750.5455    3.8623e-16
3751.5610    3.8352e-16
3752.5765    3.9583e-16
3753.5920    3.9319e-16
3754.6075    3.9952e-16
3755.6230    3.8551e-16
3756.6385    3.9225e-16
3757.6540    3.8250e-16
3758.6695    3.6801e-16
3759.6850    3.9019e-16
3760.7005    4.2099e-16
3761.7160    4.3286e-16
3762.7315    4.2363e-16
3763.7470    3.9378e-16
3764.7625    4.0601e-16
3765.7780    4.4494e-16
3766.7935    4.4893e-16
3767.8091    4.3244e-16
3768.8246    4.3423e-16
3769.8401    4.2781e-16
3770.8556    4.1621e-16
3771.8711    3.9480e-16
3772.8866    4.0907e-16
3773.9021    4.0419e-16
3774.9176    4.1206e-16
3775.9331    4.2365e-16
3776.9486    4.0644e-16
3777.9641    3.8806e-16
3778.9796    3.9526e-16
3779.9951    3.8198e-16
3781.0106    3.8855e-16
3782.0261    4.0659e-16
3783.0416    3.7312e-16
3784.0571    3.8016e-16
3785.0727    3.8500e-16
3786.0882    3.9045e-16
3787.1037    3.9693e-16
3788.1192    4.1146e-16
3789.1347    4.1123e-16
3790.1502    3.9263e-16
3791.1657    4.1686e-16
3792.1812    4.0864e-16
3793.1967    3.8936e-16
3794.2122    3.7297e-16
3795.2277    3.6156e-16
3796.2432    3.8372e-16
3797.2587    4.0565e-16
3798.2742    4.1080e-16
3799.2897    4.1102e-16
3800.3052    3.9898e-16
3801.3207    3.9151e-16
3802.3363    4.1458e-16
3803.3518    4.0291e-16
3804.3673    3.9428e-16
3805.3828    3.9993e-16
3806.3983    4.1158e-16
3807.4138    4.1768e-16
3808.4293    4.2310e-16
3809.4448    4.2911e-16
3810.4603    4.2514e-16
3811.4758    4.1693e-16
3812.4913    4.3142e-16
3813.5068    4.1975e-16
3814.5223    4.0139e-16
3815.5378    4.0278e-16
3816.5533    3.8950e-16
3817.5688    3.7036e-16
3818.5844    3.8307e-16
3819.5999    4.0402e-16
3820.6154    4.0784e-16
3821.6309    3.9274e-16
3822.6464    3.8290e-16
3823.6619    4.0254e-16
3824.6774    4.0039e-16
3825.6929    3.7548e-16
3826.7084    3.9385e-16
3827.7239    3.9981e-16
3828.7394    4.0800e-16
3829.7549    4.2450e-16
3830.7704    3.9486e-16
3831.7859    3.7632e-16
3832.8014    3.8196e-16
3833.8169    3.7592e-16
3834.8324    3.7547e-16
3835.8480    3.7471e-16
3836.8635    3.9966e-16
3837.8790    3.9805e-16
3838.8945    3.9129e-16
3839.9100    3.8742e-16
3840.9255    3.7950e-16
3841.9410    3.8294e-16
3842.9565    3.7745e-16
3843.9720    3.8536e-16
3844.9875    3.9546e-16
3846.0030    3.9002e-16
3847.0185    3.8156e-16
3848.0340    3.9176e-16
3849.0495    4.0111e-16
3850.0650    3.9663e-16
3851.0805    3.7332e-16
3852.0961    3.7429e-16
3853.1116    3.7689e-16
3854.1271    3.9058e-16
3855.1426    3.9200e-16
3856.1581    3.8192e-16
3857.1736    3.9533e-16
3858.1891    4.0499e-16
3859.2046    4.0965e-16
3860.2201    3.8268e-16
3861.2356    3.5335e-16
3862.2511    3.9374e-16
3863.2666    3.8278e-16
3864.2821    3.9338e-16
3865.2976    4.0349e-16
3866.3131    3.8313e-16
3867.3286    3.9268e-16
3868.3441    3.9339e-16
3869.3597    3.7193e-16
3870.3752    3.7693e-16
3871.3907    3.6980e-16
3872.4062    3.8425e-16
3873.4217    3.7595e-16
3874.4372    3.6911e-16
3875.4527    3.7206e-16
3876.4682    3.7712e-16
3877.4837    3.8576e-16
3878.4992    3.8363e-16
3879.5147    3.8490e-16
3880.5302    3.8855e-16
3881.5457    3.8361e-16
3882.5612    3.6562e-16
3883.5767    3.6319e-16
3884.5922    3.6109e-16
3885.6077    3.7325e-16
3886.6233    3.8315e-16
3887.6388    3.8016e-16
3888.6543    3.7519e-16
3889.6698    3.8547e-16
3890.6853    3.7040e-16
3891.7008    3.8301e-16
3892.7163    3.8147e-16
3893.7318    3.6791e-16
3894.7473    3.7745e-16
3895.7628    3.7852e-16
3896.7783    3.7487e-16
3897.7938    3.7676e-16
3898.8093    3.7768e-16
3899.8248    3.7436e-16
3900.8403    3.6988e-16
3901.8558    3.6713e-16
3902.8713    3.7858e-16
3903.8869    3.8799e-16
3904.9024    3.8626e-16
3905.9179    3.9081e-16
3906.9334    3.8455e-16
3907.9489    3.9455e-16
3908.9644    3.8818e-16
3909.9799    3.6621e-16
3910.9954    3.6638e-16
3912.0109    3.5662e-16
3913.0264    3.7442e-16
3914.0419    3.7871e-16
3915.0574    3.6261e-16
3916.0729    3.5639e-16
3917.0884    3.5839e-16
3918.1039    3.6986e-16
3919.1194    3.7306e-16
3920.1350    3.7839e-16
3921.1505    3.7603e-16
3922.1660    3.7844e-16
3923.1815    3.8180e-16
3924.1970    3.7113e-16
3925.2125    3.7949e-16
3926.2280    3.8465e-16
3927.2435    3.8097e-16
3928.2590    3.7704e-16
3929.2745    3.6716e-16
3930.2900    3.5460e-16
3931.3055    3.3857e-16
3932.3210    3.4624e-16
3933.3365    3.4893e-16
3934.3520    3.5052e-16
3935.3675    3.4638e-16
3936.3830    3.5205e-16
3937.3986    3.8366e-16
3938.4141    3.7826e-16
3939.4296    3.6933e-16
3940.4451    3.8241e-16
3941.4606    3.8035e-16
3942.4761    3.7043e-16
3943.4916    3.7792e-16
3944.5071    3.9520e-16
3945.5226    3.8951e-16
3946.5381    3.8572e-16
3947.5536    3.7244e-16
3948.5691    3.7399e-16
3949.5846    3.6041e-16
3950.6001    3.6996e-16
3951.6156    3.6755e-16
3952.6311    3.7428e-16
3953.6466    3.5841e-16
3954.6622    3.6207e-16
3955.6777    3.6972e-16
3956.6932    3.7205e-16
3957.7087    3.6987e-16
3958.7242    3.6027e-16
3959.7397    3.6288e-16
3960.7552    3.6919e-16
3961.7707    3.6587e-16
3962.7862    3.6994e-16
3963.8017    3.6832e-16
3964.8172    3.6815e-16
3965.8327    3.6245e-16
3966.8482    3.5141e-16
3967.8637    3.4493e-16
3968.8792    3.4045e-16
3969.8947    3.5615e-16
3970.9103    3.6364e-16
3971.9258    3.6718e-16
3972.9413    3.7743e-16
3973.9568    3.7818e-16
3974.9723    3.7203e-16
3975.9878    3.7076e-16
3977.0033    3.7984e-16
3978.0188    3.7205e-16
3979.0343    3.7046e-16
3980.0498    3.6441e-16
3981.0653    3.7423e-16
3982.0808    3.7417e-16
3983.0963    3.7195e-16
3984.1118    3.6000e-16
3985.1273    3.4934e-16
3986.1428    3.5239e-16
3987.1583    3.4901e-16
3988.1739    3.5588e-16
3989.1894    3.5750e-16
3990.2049    3.8184e-16
3991.2204    3.7997e-16
3992.2359    3.6806e-16
3993.2514    3.7712e-16
3994.2669    3.6962e-16
3995.2824    3.5889e-16
3996.2979    3.6789e-16
3997.3134    3.7000e-16
3998.3289    3.5793e-16
3999.3444    3.6332e-16
4000.3599    3.6672e-16
4001.3754    3.5557e-16
4002.3909    3.6039e-16
4003.4064    3.7078e-16
4004.4219    3.6469e-16
4005.4375    3.6051e-16
4006.4530    3.6305e-16
4007.4685    3.5087e-16
4008.4840    3.5788e-16
4009.4995    3.6459e-16
4010.5150    3.6504e-16
4011.5305    3.5935e-16
4012.5460    3.6366e-16
4013.5615    3.6947e-16
4014.5770    3.6085e-16
4015.5925    3.5544e-16
4016.6080    3.6860e-16
4017.6235    3.5541e-16
4018.6390    3.4319e-16
4019.6545    3.3643e-16
4020.6700    3.3384e-16
4021.6856    3.5138e-16
4022.7011    3.6198e-16
4023.7166    3.6509e-16
4024.7321    3.7409e-16
4025.7476    3.7449e-16
4026.7631    3.6882e-16
4027.7786    3.6655e-16
4028.7941    3.7356e-16
4029.8096    3.6263e-16
4030.8251    3.7174e-16
4031.8406    3.6939e-16
4032.8561    3.6001e-16
4033.8716    3.7006e-16
4034.8871    3.7003e-16
4035.9026    3.7577e-16
4036.9181    3.6674e-16
4037.9336    3.7934e-16
4038.9492    3.8602e-16
4039.9647    3.7697e-16
4040.9802    3.5988e-16
4041.9957    3.5252e-16
4043.0112    3.5509e-16
4044.0267    3.7166e-16
4045.0422    3.5789e-16
4046.0577    3.6621e-16
4047.0732    3.7679e-16
4048.0887    3.7598e-16
4049.1042    3.7304e-16
4050.1197    3.8658e-16
4051.1352    3.7035e-16
4052.1507    3.6877e-16
4053.1662    3.7933e-16
4054.1817    3.6283e-16
4055.1973    3.4941e-16
4056.2128    3.4898e-16
4057.2283    3.5268e-16
4058.2438    3.6232e-16
4059.2593    3.6934e-16
4060.2748    3.7309e-16
4061.2903    3.6874e-16
4062.3058    3.6501e-16
4063.3213    3.6792e-16
4064.3368    3.7285e-16
4065.3523    3.6959e-16
4066.3678    3.6865e-16
4067.3833    3.6220e-16
4068.3988    3.6454e-16
4069.4143    3.7543e-16
4070.4298    3.7879e-16
4071.4453    3.6687e-16
4072.4609    3.7340e-16
4073.4764    3.8717e-16
4074.4919    3.7561e-16
4075.5074    3.5228e-16
4076.5229    3.4834e-16
4077.5384    3.5519e-16
4078.5539    3.5692e-16
4079.5694    3.5714e-16
4080.5849    3.6762e-16
4081.6004    3.7095e-16
4082.6159    3.6963e-16
4083.6314    3.6323e-16
4084.6469    3.6524e-16
4085.6624    3.5124e-16
4086.6779    3.4368e-16
4087.6934    3.6221e-16
4088.7089    3.5802e-16
4089.7245    3.6290e-16
4090.7400    3.7486e-16
4091.7555    3.6827e-16
4092.7710    3.6750e-16
4093.7865    3.7402e-16
4094.8020    3.6320e-16
4095.8175    3.6611e-16
4096.8330    3.5128e-16
4097.8485    3.5581e-16
4098.8640    3.6302e-16
4099.8795    3.6273e-16
4100.8950    3.5304e-16
4101.9105    3.5788e-16
4102.9260    3.6226e-16
4103.9415    3.5961e-16
4104.9570    3.6835e-16
4105.9726    3.6546e-16
4106.9881    3.6439e-16
4108.0036    3.5816e-16
4109.0191    3.5595e-16
4110.0346    3.6671e-16
4111.0501    3.7809e-16
4112.0656    3.6399e-16
4113.0811    3.5230e-16
4114.0966    3.6241e-16
4115.1121    3.6930e-16
4116.1276    3.6170e-16
4117.1431    3.7404e-16
4118.1586    3.8260e-16
4119.1741    3.7479e-16
4120.1896    3.7304e-16
4121.2051    3.8280e-16
4122.2206    3.6553e-16
4123.2362    3.6583e-16
4124.2517    3.7211e-16
4125.2672    3.6988e-16
4126.2827    3.6878e-16
4127.2982    3.6166e-16
4128.3137    3.5368e-16
4129.3292    3.5479e-16
4130.3447    3.5986e-16
4131.3602    3.5750e-16
4132.3757    3.5551e-16
4133.3912    3.5886e-16
4134.4067    3.6649e-16
4135.4222    3.7504e-16
4136.4377    3.7315e-16
4137.4532    3.6314e-16
4138.4687    3.5586e-16
4139.4842    3.6324e-16
4140.4998    3.7224e-16
4141.5153    3.6609e-16
4142.5308    3.6192e-16
4143.5463    3.6158e-16
4144.5618    3.5748e-16
4145.5773    3.5232e-16
4146.5928    3.5084e-16
4147.6083    3.5685e-16
4148.6238    3.5575e-16
4149.6393    3.5371e-16
4150.6548    3.7028e-16
4151.6703    3.6658e-16
4152.6858    3.5959e-16
4153.7013    3.5845e-16
4154.7168    3.6553e-16
4155.7323    3.7067e-16
4156.7478    3.6519e-16
4157.7634    3.5227e-16
4158.7789    3.5460e-16
4159.7944    3.6109e-16
4160.8099    3.6121e-16
4161.8254    3.5661e-16
4162.8409    3.5089e-16
4163.8564    3.5700e-16
4164.8719    3.6197e-16
4165.8874    3.5840e-16
4166.9029    3.5884e-16
4167.9184    3.5613e-16
4168.9339    3.4930e-16
4169.9494    3.4563e-16
4170.9649    3.5646e-16
4171.9804    3.5405e-16
4172.9959    3.5064e-16
4174.0115    3.5115e-16
4175.0270    3.5319e-16
4176.0425    3.6314e-16
4177.0580    3.6262e-16
4178.0735    3.7157e-16
4179.0890    3.5914e-16
4180.1045    3.6194e-16
4181.1200    3.6052e-16
4182.1355    3.6166e-16
4183.1510    3.6198e-16
4184.1665    3.6572e-16
4185.1820    3.6523e-16
4186.1975    3.5798e-16
4187.2130    3.7232e-16
4188.2285    3.7359e-16
4189.2440    3.7220e-16
4190.2595    3.7626e-16
4191.2751    3.8954e-16
4192.2906    3.9661e-16
4193.3061    3.9501e-16
4194.3216    3.7792e-16
4195.3371    3.7343e-16
4196.3526    3.6944e-16
4197.3681    3.7312e-16
4198.3836    3.7461e-16
4199.3991    3.6581e-16
4200.4146    3.7331e-16
4201.4301    3.7884e-16
4202.4456    3.7408e-16
4203.4611    3.6316e-16
4204.4766    3.5832e-16
4205.4921    3.5125e-16
4206.5076    3.5690e-16
4207.5231    3.6651e-16
4208.5387    3.7617e-16
4209.5542    3.7067e-16
4210.5697    3.6065e-16
4211.5852    3.5608e-16
4212.6007    3.5282e-16
4213.6162    3.5482e-16
4214.6317    3.5907e-16
4215.6472    3.5876e-16
4216.6627    3.5790e-16
4217.6782    3.5554e-16
4218.6937    3.4766e-16
4219.7092    3.3991e-16
4220.7247    3.3203e-16
4221.7402    3.3150e-16
4222.7557    3.4484e-16
4223.7712    3.4905e-16
4224.7868    3.4993e-16
4225.8023    3.3726e-16
4226.8178    3.3497e-16
4227.8333    3.4425e-16
4228.8488    3.4780e-16
4229.8643    3.4275e-16
4230.8798    3.3659e-16
4231.8953    3.2425e-16
4232.9108    3.4178e-16
4233.9263    3.3990e-16
4234.9418    3.4492e-16
4235.9573    3.3520e-16
4236.9728    3.3533e-16
4237.9883    3.3463e-16
4239.0038    3.3712e-16
4240.0193    3.4815e-16
4241.0348    3.3673e-16
4242.0504    3.4651e-16
4243.0659    3.4518e-16
4244.0814    3.4265e-16
4245.0969    3.3239e-16
4246.1124    3.2399e-16
4247.1279    3.2460e-16
4248.1434    3.4115e-16
4249.1589    3.3608e-16
4250.1744    3.3807e-16
4251.1899    3.3768e-16
4252.2054    3.3776e-16
4253.2209    3.3958e-16
4254.2364    3.4504e-16
4255.2519    3.4611e-16
4256.2674    3.4447e-16
4257.2829    3.4505e-16
4258.2985    3.3932e-16
4259.3140    3.3562e-16
4260.3295    3.3077e-16
4261.3450    3.2654e-16
4262.3605    3.3060e-16
4263.3760    3.3816e-16
4264.3915    3.4648e-16
4265.4070    3.3850e-16
4266.4225    3.3029e-16
4267.4380    3.3235e-16
4268.4535    3.4287e-16
4269.4690    3.4486e-16
4270.4845    3.3844e-16
4271.5000    3.3368e-16
4272.5155    3.2880e-16
4273.5310    3.3204e-16
4274.5465    3.4161e-16
4275.5621    3.3883e-16
4276.5776    3.3667e-16
4277.5931    3.3022e-16
4278.6086    3.2796e-16
4279.6241    3.3188e-16
4280.6396    3.2969e-16
4281.6551    3.3222e-16
4282.6706    3.3026e-16
4283.6861    3.3354e-16
4284.7016    3.4196e-16
4285.7171    3.4062e-16
4286.7326    3.3701e-16
4287.7481    3.3723e-16
4288.7636    3.4072e-16
4289.7791    3.2968e-16
4290.7946    3.3416e-16
4291.8101    3.3664e-16
4292.8257    3.4385e-16
4293.8412    3.4003e-16
4294.8567    3.2760e-16
4295.8722    3.2310e-16
4296.8877    3.3027e-16
4297.9032    3.3821e-16
4298.9187    3.4225e-16
4299.9342    3.3777e-16
4300.9497    3.3353e-16
4301.9652    3.2829e-16
4302.9807    3.2754e-16
4303.9962    3.3306e-16
4305.0117    3.2929e-16
4306.0272    3.3553e-16
4307.0427    3.3283e-16
4308.0582    3.3427e-16
4309.0737    3.4342e-16
4310.0893    3.3884e-16
4311.1048    3.3625e-16
4312.1203    3.3206e-16
4313.1358    3.3062e-16
4314.1513    3.2609e-16
4315.1668    3.2913e-16
4316.1823    3.3360e-16
4317.1978    3.3741e-16
4318.2133    3.3886e-16
4319.2288    3.3207e-16
4320.2443    3.3124e-16
4321.2598    3.2410e-16
4322.2753    3.2478e-16
4323.2908    3.2876e-16
4324.3063    3.2696e-16
4325.3218    3.3518e-16
4326.3374    3.3924e-16
4327.3529    3.3506e-16
4328.3684    3.3069e-16
4329.3839    3.3259e-16
4330.3994    3.3757e-16
4331.4149    3.4226e-16
4332.4304    3.3460e-16
4333.4459    3.2326e-16
4334.4614    3.2475e-16
4335.4769    3.2760e-16
4336.4924    3.2913e-16
4337.5079    3.3241e-16
4338.5234    3.2298e-16
4339.5389    3.3234e-16
4340.5544    3.3915e-16
4341.5699    3.3838e-16
4342.5854    3.3296e-16
4343.6010    3.2878e-16
4344.6165    3.3236e-16
4345.6320    3.2968e-16
4346.6475    3.2969e-16
4347.6630    3.4112e-16
4348.6785    3.2913e-16
4349.6940    3.2057e-16
4350.7095    3.2078e-16
4351.7250    3.2990e-16
4352.7405    3.3532e-16
4353.7560    3.3199e-16
4354.7715    3.3253e-16
4355.7870    3.3907e-16
4356.8025    3.4699e-16
4357.8180    3.4313e-16
4358.8335    3.4270e-16
4359.8490    3.3668e-16
4360.8646    3.2930e-16
4361.8801    3.2256e-16
4362.8956    3.2953e-16
4363.9111    3.3132e-16
4364.9266    3.3762e-16
4365.9421    3.4621e-16
4366.9576    3.3140e-16
4367.9731    3.2654e-16
4368.9886    3.4076e-16
4370.0041    3.4812e-16
4371.0196    3.4764e-16
4372.0351    3.3517e-16
4373.0506    3.2706e-16
4374.0661    3.2644e-16
4375.0816    3.2275e-16
4376.0971    3.3155e-16
4377.1127    3.3177e-16
4378.1282    3.3173e-16
4379.1437    3.3825e-16
4380.1592    3.4937e-16
4381.1747    3.5129e-16
4382.1902    3.3960e-16
4383.2057    3.2922e-16
4384.2212    3.3356e-16
4385.2367    3.3500e-16
4386.2522    3.2805e-16
4387.2677    3.2617e-16
4388.2832    3.2868e-16
4389.2987    3.3381e-16
4390.3142    3.3187e-16
4391.3297    3.2425e-16
4392.3452    3.2480e-16
4393.3607    3.2920e-16
4394.3763    3.4178e-16
4395.3918    3.4523e-16
4396.4073    3.4884e-16
4397.4228    3.4870e-16
4398.4383    3.3563e-16
4399.4538    3.2843e-16
4400.4693    3.3149e-16
4401.4848    3.4112e-16
4402.5003    3.5159e-16
4403.5158    3.5308e-16
4404.5313    3.4192e-16
4405.5468    3.3918e-16
4406.5623    3.3516e-16
4407.5778    3.2913e-16
4408.5933    3.3849e-16
4409.6088    3.3740e-16
4410.6244    3.3300e-16
4411.6399    3.2788e-16
4412.6554    3.3250e-16
4413.6709    3.3950e-16
4414.6864    3.3297e-16
4415.7019    3.2767e-16
4416.7174    3.2833e-16
4417.7329    3.2754e-16
4418.7484    3.3672e-16
4419.7639    3.3297e-16
4420.7794    3.3724e-16
4421.7949    3.4281e-16
4422.8104    3.3762e-16
4423.8259    3.2069e-16
4424.8414    3.1910e-16
4425.8569    3.2832e-16
4426.8724    3.4333e-16
4427.8880    3.3976e-16
4428.9035    3.4400e-16
4429.9190    3.4321e-16
4430.9345    3.3520e-16
4431.9500    3.3026e-16
4432.9655    3.2575e-16
4433.9810    3.3810e-16
4434.9965    3.4785e-16
4436.0120    3.4279e-16
4437.0275    3.4068e-16
4438.0430    3.4097e-16
4439.0585    3.4915e-16
4440.0740    3.4221e-16
4441.0895    3.3589e-16
4442.1050    3.3319e-16
4443.1205    3.3818e-16
4444.1360    3.4154e-16
4445.1516    3.3740e-16
4446.1671    3.3508e-16
4447.1826    3.4006e-16
4448.1981    3.3512e-16
4449.2136    3.3514e-16
4450.2291    3.4221e-16
4451.2446    3.3962e-16
4452.2601    3.3606e-16
4453.2756    3.3038e-16
4454.2911    3.2759e-16
4455.3066    3.3224e-16
4456.3221    3.2987e-16
4457.3376    3.2641e-16
4458.3531    3.1824e-16
4459.3686    3.2173e-16
4460.3841    3.3023e-16
4461.3997    3.3604e-16
4462.4152    3.3207e-16
4463.4307    3.2909e-16
4464.4462    3.3392e-16
4465.4617    3.4421e-16
4466.4772    3.4822e-16
4467.4927    3.4404e-16
4468.5082    3.3441e-16
4469.5237    3.2663e-16
4470.5392    3.2766e-16
4471.5547    3.3099e-16
4472.5702    3.2868e-16
4473.5857    3.2619e-16
4474.6012    3.1612e-16
4475.6167    3.1410e-16
4476.6322    3.1855e-16
4477.6477    3.2494e-16
4478.6633    3.2945e-16
4479.6788    3.2861e-16
4480.6943    3.2127e-16
4481.7098    3.1554e-16
4482.7253    3.1450e-16
4483.7408    3.2032e-16
4484.7563    3.2935e-16
4485.7718    3.2220e-16
4486.7873    3.2068e-16
4487.8028    3.1473e-16
4488.8183    3.1633e-16
4489.8338    3.2881e-16
4490.8493    3.2258e-16
4491.8648    3.2191e-16
4492.8803    3.1801e-16
4493.8958    3.2471e-16
4494.9113    3.2482e-16
4495.9269    3.2565e-16
4496.9424    3.2354e-16
4497.9579    3.3000e-16
4498.9734    3.2355e-16
4499.9889    3.1467e-16
4501.0044    3.2608e-16
4502.0199    3.2079e-16
4503.0354    3.1494e-16
4504.0509    3.2240e-16
4505.0664    3.2315e-16
4506.0819    3.2243e-16
4507.0974    3.1693e-16
4508.1129    3.1544e-16
4509.1284    3.2432e-16
4510.1439    3.2500e-16
4511.1594    3.2603e-16
4512.1749    3.2509e-16
4513.1905    3.2711e-16
4514.2060    3.2295e-16
4515.2215    3.2067e-16
4516.2370    3.1346e-16
4517.2525    3.1535e-16
4518.2680    3.2015e-16
4519.2835    3.2431e-16
4520.2990    3.2626e-16
4521.3145    3.2219e-16
4522.3300    3.1933e-16
4523.3455    3.2625e-16
4524.3610    3.2862e-16
4525.3765    3.1220e-16
4526.3920    3.0849e-16
4527.4075    3.1403e-16
4528.4230    3.1934e-16
4529.4386    3.2389e-16
4530.4541    3.2083e-16
4531.4696    3.1846e-16
4532.4851    3.2559e-16
4533.5006    3.2523e-16
4534.5161    3.1303e-16
4535.5316    3.1478e-16
4536.5471    3.2022e-16
4537.5626    3.2107e-16
4538.5781    3.2207e-16
4539.5936    3.2541e-16
4540.6091    3.2919e-16
4541.6246    3.3302e-16
4542.6401    3.3217e-16
4543.6556    3.2245e-16
4544.6711    3.1830e-16
4545.6866    3.2307e-16
4546.7022    3.2480e-16
4547.7177    3.1757e-16
4548.7332    3.1373e-16
4549.7487    3.2075e-16
4550.7642    3.2786e-16
4551.7797    3.1953e-16
4552.7952    3.2652e-16
4553.8107    3.2673e-16
4554.8262    3.1296e-16
4555.8417    3.0764e-16
4556.8572    3.1290e-16
4557.8727    3.1410e-16
4558.8882    3.0935e-16
4559.9037    3.0980e-16
4560.9192    3.1385e-16
4561.9347    3.2324e-16
4562.9502    3.2707e-16
4563.9658    3.2308e-16
4564.9813    3.2667e-16
4565.9968    3.3112e-16
4567.0123    3.1763e-16
4568.0278    3.2125e-16
4569.0433    3.2030e-16
4570.0588    3.2082e-16
4571.0743    3.1871e-16
4572.0898    3.3041e-16
4573.1053    3.2205e-16
4574.1208    3.1912e-16
4575.1363    3.0157e-16
4576.1518    3.1708e-16
4577.1673    3.2598e-16
4578.1828    3.1180e-16
4579.1983    3.1628e-16
4580.2139    3.2610e-16
4581.2294    3.2551e-16
4582.2449    3.2261e-16
4583.2604    3.1500e-16
4584.2759    3.1645e-16
4585.2914    3.2162e-16
4586.3069    3.2171e-16
4587.3224    3.2480e-16
4588.3379    3.2573e-16
4589.3534    3.1632e-16
4590.3689    3.2249e-16
4591.3844    3.2314e-16
4592.3999    3.3140e-16
4593.4154    3.3332e-16
4594.4309    3.2532e-16
4595.4464    3.1902e-16
4596.4619    3.2098e-16
4597.4775    3.1483e-16
4598.4930    3.0511e-16
4599.5085    3.1015e-16
4600.5240    3.2219e-16
4601.5395    3.2289e-16
4602.5550    3.2399e-16
4603.5705    3.2168e-16
4604.5860    3.2308e-16
4605.6015    3.2718e-16
4606.6170    3.2553e-16
4607.6325    3.1690e-16
4608.6480    3.1469e-16
4609.6635    3.1956e-16
4610.6790    3.2091e-16
4611.6945    3.2861e-16
4612.7100    3.3299e-16
4613.7256    3.2298e-16
4614.7411    3.1652e-16
4615.7566    3.1645e-16
4616.7721    3.2288e-16
4617.7876    3.2340e-16
4618.8031    3.2497e-16
4619.8186    3.2627e-16
4620.8341    3.2905e-16
4621.8496    3.2486e-16
4622.8651    3.2516e-16
4623.8806    3.2166e-16
4624.8961    3.3065e-16
4625.9116    3.4290e-16
4626.9271    3.3727e-16
4627.9426    3.3312e-16
4628.9581    3.2987e-16
4629.9736    3.2612e-16
4630.9892    3.3264e-16
4632.0047    3.3928e-16
4633.0202    3.3317e-16
4634.0357    3.3253e-16
4635.0512    3.3038e-16
4636.0667    3.3190e-16
4637.0822    3.2945e-16
4638.0977    3.3393e-16
4639.1132    3.3401e-16
4640.1287    3.3529e-16
4641.1442    3.3640e-16
4642.1597    3.3914e-16
4643.1752    3.3412e-16
4644.1907    3.3085e-16
4645.2062    3.3025e-16
4646.2217    3.2243e-16
4647.2372    3.1825e-16
4648.2528    3.1597e-16
4649.2683    3.1833e-16
4650.2838    3.1609e-16
4651.2993    3.0198e-16
4652.3148    2.9358e-16
4653.3303    3.0219e-16
4654.3458    3.1069e-16
4655.3613    3.1518e-16
4656.3768    3.2378e-16
4657.3923    3.1995e-16
4658.4078    3.1232e-16
4659.4233    3.1824e-16
4660.4388    3.2379e-16
4661.4543    3.1625e-16
4662.4698    3.1443e-16
4663.4853    3.1596e-16
4664.5009    3.0633e-16
4665.5164    3.0030e-16
4666.5319    3.0185e-16
4667.5474    3.0536e-16
4668.5629    3.0691e-16
4669.5784    3.0522e-16
4670.5939    3.0430e-16
4671.6094    3.0468e-16
4672.6249    3.1207e-16
4673.6404    3.2361e-16
4674.6559    3.2739e-16
4675.6714    3.1500e-16
4676.6869    3.0672e-16
4677.7024    3.0959e-16
4678.7179    3.0780e-16
4679.7334    3.0725e-16
4680.7489    3.1185e-16
4681.7645    3.1386e-16
4682.7800    3.1791e-16
4683.7955    3.1379e-16
4684.8110    3.1197e-16
4685.8265    3.2155e-16
4686.8420    3.1999e-16
4687.8575    3.1163e-16
4688.8730    3.0906e-16
4689.8885    3.0880e-16
4690.9040    3.0769e-16
4691.9195    3.1378e-16
4692.9350    3.2110e-16
4693.9505    3.2039e-16
4694.9660    3.2076e-16
4695.9815    3.2446e-16
4696.9970    3.2603e-16
4698.0125    3.2647e-16
4699.0281    3.5586e-16
4700.0436    3.2831e-16
4701.0591    3.1954e-16
4702.0746    3.4122e-16
4703.0901    3.2712e-16
4704.1056    3.1680e-16
4705.1211    3.2675e-16
4706.1366    3.2821e-16
4707.1521    3.3777e-16
4708.1676    3.3633e-16
4709.1831    3.4254e-16
4710.1986    3.0200e-16
4711.2141    3.1936e-16
4712.2296    3.3024e-16
4713.2451    3.3944e-16
4714.2606    3.3905e-16
4715.2761    3.2519e-16
4716.2917    3.0410e-16
4717.3072    3.3472e-16
4718.3227    3.5830e-16
4719.3382    3.5520e-16
4720.3537    3.5734e-16
4721.3692    3.5823e-16
4722.3847    3.6368e-16
4723.4002    3.5034e-16
4724.4157    3.5680e-16
4725.4312    3.6119e-16
4726.4467    3.5609e-16
4727.4622    3.5449e-16
4728.4777    3.3882e-16
4729.4932    3.3625e-16
4730.5087    3.3320e-16
4731.5242    3.2605e-16
4732.5398    3.4683e-16
4733.5553    3.6994e-16
4734.5708    3.6456e-16
4735.5863    3.6927e-16
4736.6018    3.6791e-16
4737.6173    3.6648e-16
4738.6328    3.6599e-16
4739.6483    3.6787e-16
4740.6638    3.6326e-16
4741.6793    3.5715e-16
4742.6948    3.7079e-16
4743.7103    3.7984e-16
4744.7258    3.5856e-16
4745.7413    3.4698e-16
4746.7568    3.5828e-16
4747.7723    3.6938e-16
4748.7878    3.6246e-16
4749.8034    3.5764e-16
4750.8189    3.5166e-16
4751.8344    3.4805e-16
4752.8499    3.3753e-16
4753.8654    3.2136e-16
4754.8809    3.2642e-16
4755.8964    3.1412e-16
4756.9119    3.0249e-16
4757.9274    3.3616e-16
4758.9429    3.3207e-16
4759.9584    3.0987e-16
4760.9739    3.1996e-16
4761.9894    3.0746e-16
4763.0049    3.1133e-16
4764.0204    3.1471e-16
4765.0359    3.0999e-16
4766.0514    3.0771e-16
4767.0670    3.0604e-16
4768.0825    3.0471e-16
4769.0980    3.0996e-16
4770.1135    3.0532e-16
4771.1290    3.0730e-16
4772.1445    3.0993e-16
4773.1600    3.0897e-16
4774.1755    3.0980e-16
4775.1910    3.2157e-16
4776.2065    3.2342e-16
4777.2220    3.2485e-16
4778.2375    3.3170e-16
4779.2530    3.2795e-16
4780.2685    3.3299e-16
4781.2840    3.3176e-16
4782.2995    3.4681e-16
4783.3151    3.3440e-16
4784.3306    3.3707e-16
4785.3461    3.4357e-16
4786.3616    3.4181e-16
4787.3771    3.5917e-16
4788.3926    3.6687e-16
4789.4081    3.6778e-16
4790.4236    3.6646e-16
4791.4391    3.4995e-16
4792.4546    3.4390e-16
4793.4701    3.4840e-16
4794.4856    3.4828e-16
4795.5011    3.3321e-16
4796.5166    3.4023e-16
4797.5321    3.2908e-16
4798.5476    3.3398e-16
4799.5631    3.3885e-16
4800.5787    3.3949e-16
4801.5942    3.5625e-16
4802.6097    3.3875e-16
4803.6252    3.0788e-16
4804.6407    3.1560e-16
4805.6562    3.2035e-16
4806.6717    3.0426e-16
4807.6872    3.0732e-16
4808.7027    3.1265e-16
4809.7182    3.0478e-16
4810.7337    3.0630e-16
4811.7492    3.5876e-16
4812.7647    3.4474e-16
4813.7802    3.0886e-16
4814.7957    2.8356e-16
4815.8112    3.1039e-16
4816.8268    3.0507e-16
4817.8423    2.9818e-16
4818.8578    2.9215e-16
4819.8733    2.8907e-16
4820.8888    2.8579e-16
4821.9043    3.0670e-16
4822.9198    3.0332e-16
4823.9353    2.9185e-16
4824.9508    2.8739e-16
4825.9663    2.8162e-16
4826.9818    2.9503e-16
4827.9973    2.9025e-16
4829.0128    2.8785e-16
4830.0283    2.8931e-16
4831.0438    2.7818e-16
4832.0593    2.8628e-16
4833.0748    2.8887e-16
4834.0904    2.7712e-16
4835.1059    2.8223e-16
4836.1214    2.8238e-16
4837.1369    2.9836e-16
4838.1524    2.9084e-16
4839.1679    2.9069e-16
4840.1834    2.8502e-16
4841.1989    2.8300e-16
4842.2144    2.7962e-16
4843.2299    2.8323e-16
4844.2454    2.9560e-16
4845.2609    2.8587e-16
4846.2764    2.8228e-16
4847.2919    2.8003e-16
4848.3074    2.8126e-16
4849.3229    2.7740e-16
4850.3384    2.7678e-16
4851.3540    2.8053e-16
4852.3695    2.7928e-16
4853.3850    2.7604e-16
4854.4005    2.7562e-16
4855.4160    2.7164e-16
4856.4315    2.7735e-16
4857.4470    2.7856e-16
4858.4625    2.7759e-16
4859.4780    2.8429e-16
4860.4935    2.8554e-16
4861.5090    2.8057e-16
4862.5245    2.6868e-16
4863.5400    2.7240e-16
4864.5555    2.8835e-16
4865.5710    2.7738e-16
4866.5865    2.7559e-16
4867.6020    2.7532e-16
4868.6176    2.6548e-16
4869.6331    2.5997e-16
4870.6486    2.7360e-16
4871.6641    2.7861e-16
4872.6796    2.7313e-16
4873.6951    2.6819e-16
4874.7106    2.6589e-16
4875.7261    2.6840e-16
4876.7416    2.7543e-16
4877.7571    2.7690e-16
4878.7726    2.7157e-16
4879.7881    2.7624e-16
4880.8036    2.7681e-16
4881.8191    2.7114e-16
4882.8346    2.6205e-16
4883.8501    2.6412e-16
4884.8657    2.5824e-16
4885.8812    2.5536e-16
4886.8967    2.7299e-16
4887.9122    2.6938e-16
4888.9277    2.6953e-16
4889.9432    2.5841e-16
4890.9587    2.6613e-16
4891.9742    2.5686e-16
4892.9897    2.6236e-16
4894.0052    2.6192e-16
4895.0207    2.6633e-16
4896.0362    2.7373e-16
4897.0517    2.6777e-16
4898.0672    2.6041e-16
4899.0827    2.4758e-16
4900.0982    2.7173e-16
4901.1137    2.7263e-16
4902.1293    2.6490e-16
4903.1448    2.5714e-16
4904.1603    2.6193e-16
4905.1758    2.6856e-16
4906.1913    2.6342e-16
4907.2068    2.5530e-16
4908.2223    2.6032e-16
4909.2378    2.6929e-16
4910.2533    2.6263e-16
4911.2688    2.6643e-16
4912.2843    2.5471e-16
4913.2998    2.6050e-16
4914.3153    2.6547e-16
4915.3308    2.7509e-16
4916.3463    2.6462e-16
4917.3618    2.5984e-16
4918.3773    2.6909e-16
4919.3929    2.6511e-16
4920.4084    2.5936e-16
4921.4239    2.5747e-16
4922.4394    2.6355e-16
4923.4549    2.6144e-16
4924.4704    2.5791e-16
4925.4859    2.4766e-16
4926.5014    2.6151e-16
4927.5169    2.6961e-16
4928.5324    2.6573e-16
4929.5479    2.5319e-16
4930.5634    2.6779e-16
4931.5789    2.6667e-16
4932.5944    2.5982e-16
4933.6099    2.7180e-16
4934.6254    2.5263e-16
4935.6410    2.5424e-16
4936.6565    2.6734e-16
4937.6720    2.5699e-16
4938.6875    2.6154e-16
4939.7030    2.5985e-16
4940.7185    2.5181e-16
4941.7340    2.6022e-16
4942.7495    2.6618e-16
4943.7650    2.5947e-16
4944.7805    2.6276e-16
4945.7960    2.6346e-16
4946.8115    2.6132e-16
4947.8270    2.5700e-16
4948.8425    2.5971e-16
4949.8580    2.6258e-16
4950.8735    2.6339e-16
4951.8890    2.6249e-16
4952.9046    2.7227e-16
4953.9201    2.5794e-16
4954.9356    2.5952e-16
4955.9511    2.6686e-16
4956.9666    2.6851e-16
4957.9821    2.8762e-16
4958.9976    3.0143e-16
4960.0131    2.7664e-16
4961.0286    2.7021e-16
4962.0441    2.7299e-16
4963.0596    2.8055e-16
4964.0751    2.7588e-16
4965.0906    2.7251e-16
4966.1061    2.6777e-16
4967.1216    2.8186e-16
4968.1371    2.8051e-16
4969.1526    2.9227e-16
4970.1682    2.8189e-16
4971.1837    2.9164e-16
4972.1992    2.7134e-16
4973.2147    2.6385e-16
4974.2302    2.7405e-16
4975.2457    2.6136e-16
4976.2612    2.6605e-16
4977.2767    2.7203e-16
4978.2922    2.6631e-16
4979.3077    2.6516e-16
4980.3232    2.6370e-16
4981.3387    2.5827e-16
4982.3542    2.5647e-16
4983.3697    2.6636e-16
4984.3852    2.5810e-16
4985.4007    2.4797e-16
4986.4163    2.5397e-16
4987.4318    2.5366e-16
4988.4473    2.5147e-16
4989.4628    2.5577e-16
4990.4783    2.5828e-16
4991.4938    2.5650e-16
4992.5093    2.5426e-16
4993.5248    2.6551e-16
4994.5403    2.6066e-16
4995.5558    2.4691e-16
4996.5713    2.4734e-16
4997.5868    2.5644e-16
4998.6023    2.6228e-16
4999.6178    2.5692e-16
5000.6333    2.5060e-16
5001.6488    2.5072e-16
5002.6643    2.5308e-16
5003.6799    2.4322e-16
5004.6954    2.4465e-16
5005.7109    2.3540e-16
5006.7264    2.4639e-16
5007.7419    2.5480e-16
5008.7574    2.5454e-16
5009.7729    2.5347e-16
5010.7884    2.5417e-16
5011.8039    2.5366e-16
5012.8194    2.5001e-16
5013.8349    2.4056e-16
5014.8504    2.5003e-16
5015.8659    2.5743e-16
5016.8814    2.5089e-16
5017.8969    2.5326e-16
5018.9124    2.4857e-16
5019.9280    2.4663e-16
5020.9435    2.5135e-16
5021.9590    2.5420e-16
5022.9745    2.5135e-16
5023.9900    2.5185e-16
5025.0055    2.4988e-16
5026.0210    2.5506e-16
5027.0365    2.4032e-16
5028.0520    2.5369e-16
5029.0675    2.4851e-16
5030.0830    2.5384e-16
5031.0985    2.5119e-16
5032.1140    2.4000e-16
5033.1295    2.4964e-16
5034.1450    2.4569e-16
5035.1605    2.4289e-16
5036.1760    2.4971e-16
5037.1916    2.4181e-16
5038.2071    2.4057e-16
5039.2226    2.4192e-16
5040.2381    2.5230e-16
5041.2536    2.3984e-16
5042.2691    2.3964e-16
5043.2846    2.3398e-16
5044.3001    2.4472e-16
5045.3156    2.3926e-16
5046.3311    2.3657e-16
5047.3466    2.4774e-16
5048.3621    2.3907e-16
5049.3776    2.3050e-16
5050.3931    2.3442e-16
5051.4086    2.4864e-16
5052.4241    2.4966e-16
5053.4396    2.4214e-16
5054.4552    2.4941e-16
5055.4707    2.4808e-16
5056.4862    2.4864e-16
5057.5017    2.3248e-16
5058.5172    2.4313e-16
5059.5327    2.4471e-16
5060.5482    2.4674e-16
5061.5637    2.4043e-16
5062.5792    2.4346e-16
5063.5947    2.5337e-16
5064.6102    2.3873e-16
5065.6257    2.5364e-16
5066.6412    2.5710e-16
5067.6567    2.5188e-16
5068.6722    2.5170e-16
5069.6877    2.4477e-16
5070.7033    2.3854e-16
5071.7188    2.5020e-16
5072.7343    2.4526e-16
5073.7498    2.4430e-16
5074.7653    2.5031e-16
5075.7808    2.4971e-16
5076.7963    2.4268e-16
5077.8118    2.4170e-16
5078.8273    2.4798e-16
5079.8428    2.4856e-16
5080.8583    2.4126e-16
5081.8738    2.4717e-16
5082.8893    2.4453e-16
5083.9048    2.4613e-16
5084.9203    2.3643e-16
5085.9358    2.5020e-16
5086.9513    2.5123e-16
5087.9669    2.5456e-16
5088.9824    2.3970e-16
5089.9979    2.4723e-16
5091.0134    2.3899e-16
5092.0289    2.4528e-16
5093.0444    2.3534e-16
5094.0599    2.3870e-16
5095.0754    2.4107e-16
5096.0909    2.4789e-16
5097.1064    2.5037e-16
5098.1219    2.3411e-16
5099.1374    2.4399e-16
5100.1529    2.4245e-16
5101.1684    2.3362e-16
5102.1839    2.4742e-16
5103.1994    2.3962e-16
5104.2149    2.4068e-16
5105.2305    2.3903e-16
5106.2460    2.5213e-16
5107.2615    2.4781e-16
5108.2770    2.3653e-16
5109.2925    2.3873e-16
5110.3080    2.3550e-16
5111.3235    2.3424e-16
5112.3390    2.4844e-16
5113.3545    2.4749e-16
5114.3700    2.4780e-16
5115.3855    2.4420e-16
5116.4010    2.3666e-16
5117.4165    2.4535e-16
5118.4320    2.4505e-16
5119.4475    2.3759e-16
5120.4630    2.4017e-16
5121.4785    2.3704e-16
5122.4941    2.4263e-16
5123.5096    2.4562e-16
5124.5251    2.3428e-16
5125.5406    2.3875e-16
5126.5561    2.3694e-16
5127.5716    2.4140e-16
5128.5871    2.3903e-16
5129.6026    2.4598e-16
5130.6181    2.4457e-16
5131.6336    2.3521e-16
5132.6491    2.3369e-16
5133.6646    2.3942e-16
5134.6801    2.4113e-16
5135.6956    2.3942e-16
5136.7111    2.4820e-16
5137.7266    2.3419e-16
5138.7422    2.3697e-16
5139.7577    2.4051e-16
5140.7732    2.3476e-16
5141.7887    2.4470e-16
5142.8042    2.4780e-16
5143.8197    2.4510e-16
5144.8352    2.4298e-16
5145.8507    2.3672e-16
5146.8662    2.3557e-16
5147.8817    2.3584e-16
5148.8972    2.3831e-16
5149.9127    2.4505e-16
5150.9282    2.4201e-16
5151.9437    2.3756e-16
5152.9592    2.3485e-16
5153.9747    2.4453e-16
5154.9902    2.4160e-16
5156.0058    2.3675e-16
5157.0213    2.4510e-16
5158.0368    2.3919e-16
5159.0523    2.4530e-16
5160.0678    2.3532e-16
5161.0833    2.3995e-16
5162.0988    2.3397e-16
5163.1143    2.4076e-16
5164.1298    2.4333e-16
5165.1453    2.4711e-16
5166.1608    2.4865e-16
5167.1763    2.5750e-16
5168.1918    2.5392e-16
5169.2073    2.4489e-16
5170.2228    2.4104e-16
5171.2383    2.3413e-16
5172.2539    2.3992e-16
5173.2694    2.3635e-16
5174.2849    2.3954e-16
5175.3004    2.4455e-16
5176.3159    2.3740e-16
5177.3314    2.3578e-16
5178.3469    2.3712e-16
5179.3624    2.3394e-16
5180.3779    2.3162e-16
5181.3934    2.3896e-16
5182.4089    2.3140e-16
5183.4244    2.3454e-16
5184.4399    2.3674e-16
5185.4554    2.3826e-16
5186.4709    2.3579e-16
5187.4864    2.4590e-16
5188.5019    2.3142e-16
5189.5175    2.3652e-16
5190.5330    2.3534e-16
5191.5485    2.3682e-16
5192.5640    2.3493e-16
5193.5795    2.3854e-16
5194.5950    2.3105e-16
5195.6105    2.3375e-16
5196.6260    2.3301e-16
5197.6415    2.3939e-16
5198.6570    2.3042e-16
5199.6725    2.3750e-16
5200.6880    2.4002e-16
5201.7035    2.3545e-16
5202.7190    2.4090e-16
5203.7345    2.3787e-16
5204.7500    2.3039e-16
5205.7655    2.3203e-16
5206.7811    2.4418e-16
5207.7966    2.3323e-16
5208.8121    2.3096e-16
5209.8276    2.4182e-16
5210.8431    2.4645e-16
5211.8586    2.3660e-16
5212.8741    2.3834e-16
5213.8896    2.3900e-16
5214.9051    2.3303e-16
5215.9206    2.3720e-16
5216.9361    2.3702e-16
5217.9516    2.3314e-16
5218.9671    2.2986e-16
5219.9826    2.3234e-16
5220.9981    2.3929e-16
5222.0136    2.3474e-16
5223.0292    2.3812e-16
5224.0447    2.3204e-16
5225.0602    2.3222e-16
5226.0757    2.3673e-16
5227.0912    2.4144e-16
5228.1067    2.3812e-16
5229.1222    2.3816e-16
5230.1377    2.3695e-16
5231.1532    2.3608e-16
5232.1687    2.3077e-16
5233.1842    2.3837e-16
5234.1997    2.3759e-16
5235.2152    2.3759e-16
5236.2307    2.2638e-16
5237.2462    2.3502e-16
5238.2617    2.3357e-16
5239.2772    2.3596e-16
5240.2928    2.3504e-16
5241.3083    2.2612e-16
5242.3238    2.2842e-16
5243.3393    2.3231e-16
5244.3548    2.3083e-16
5245.3703    2.3538e-16
5246.3858    2.3257e-16
5247.4013    2.3024e-16
5248.4168    2.2638e-16
5249.4323    2.2432e-16
5250.4478    2.3657e-16
5251.4633    2.3577e-16
5252.4788    2.3697e-16
5253.4943    2.2204e-16
5254.5098    2.2204e-16
5255.5253    2.2225e-16
5256.5408    2.2797e-16
5257.5564    2.3421e-16
5258.5719    2.2900e-16
5259.5874    2.3023e-16
5260.6029    2.2719e-16
5261.6184    2.3132e-16
5262.6339    2.2847e-16
5263.6494    2.2409e-16
5264.6649    2.3649e-16
5265.6804    2.2899e-16
5266.6959    2.2740e-16
5267.7114    2.2843e-16
5268.7269    2.3022e-16
5269.7424    2.2766e-16
5270.7579    2.2254e-16
5271.7734    2.2572e-16
5272.7889    2.2971e-16
5273.8044    2.2602e-16
5274.8200    2.2547e-16
5275.8355    2.2608e-16
5276.8510    2.2987e-16
5277.8665    2.2525e-16
5278.8820    2.3059e-16
5279.8975    2.3655e-16
5280.9130    2.3091e-16
5281.9285    2.4191e-16
5282.9440    2.4241e-16
5283.9595    2.4653e-16
5284.9750    2.3671e-16
5285.9905    2.3671e-16
5287.0060    2.2890e-16
5288.0215    2.3406e-16
5289.0370    2.3168e-16
5290.0525    2.2444e-16
5291.0681    2.2852e-16
5292.0836    2.3198e-16
5293.0991    2.2980e-16
5294.1146    2.3738e-16
5295.1301    2.2900e-16
5296.1456    2.2577e-16
5297.1611    2.2732e-16
5298.1766    2.2790e-16
5299.1921    2.2866e-16
5300.2076    2.2645e-16
5301.2231    2.3222e-16
5302.2386    2.3067e-16
5303.2541    2.2883e-16
5304.2696    2.2853e-16
5305.2851    2.2601e-16
5306.3006    2.2618e-16
5307.3161    2.2941e-16
5308.3317    2.3070e-16
5309.3472    2.3369e-16
5310.3627    2.2686e-16
5311.3782    2.2901e-16
5312.3937    2.3165e-16
5313.4092    2.2736e-16
5314.4247    2.3054e-16
5315.4402    2.2901e-16
5316.4557    2.2511e-16
5317.4712    2.2795e-16
5318.4867    2.2963e-16
5319.5022    2.3039e-16
5320.5177    2.2756e-16
5321.5332    2.2812e-16
5322.5487    2.2966e-16
5323.5642    2.3033e-16
5324.5797    2.2752e-16
5325.5953    2.3058e-16
5326.6108    2.3307e-16
5327.6263    2.3307e-16
5328.6418    2.2876e-16
5329.6573    2.3111e-16
5330.6728    2.3060e-16
5331.6883    2.3098e-16
5332.7038    2.3015e-16
5333.7193    2.2920e-16
5334.7348    2.2914e-16
5335.7503    2.2882e-16
5336.7658    2.2957e-16
5337.7813    2.2923e-16
5338.7968    2.2393e-16
5339.8123    2.2798e-16
5340.8278    2.2406e-16
5341.8434    2.2234e-16
5342.8589    2.2485e-16
5343.8744    2.3199e-16
5344.8899    2.3044e-16
5345.9054    2.2683e-16
5346.9209    2.3094e-16
5347.9364    2.2991e-16
5348.9519    2.3385e-16
5349.9674    2.3893e-16
5350.9829    2.4043e-16
5351.9984    2.3322e-16
5353.0139    2.3000e-16
5354.0294    2.2738e-16
5355.0449    2.2598e-16
5356.0604    2.2941e-16
5357.0759    2.2838e-16
5358.0914    2.2308e-16
5359.1070    2.2870e-16
5360.1225    2.2996e-16
5361.1380    2.2696e-16
5362.1535    2.2300e-16
5363.1690    2.2404e-16
5364.1845    2.2599e-16
5365.2000    2.2650e-16
5366.2155    2.2449e-16
5367.2310    2.2542e-16
5368.2465    2.2728e-16
5369.2620    2.2788e-16
5370.2775    2.3095e-16
5371.2930    2.2783e-16
5372.3085    2.2603e-16
5373.3240    2.2292e-16
5374.3395    2.2178e-16
5375.3551    2.2426e-16
5376.3706    2.2718e-16
5377.3861    2.2897e-16
5378.4016    2.2903e-16
5379.4171    2.2806e-16
5380.4326    2.2663e-16
5381.4481    2.2348e-16
5382.4636    2.2583e-16
5383.4791    2.2695e-16
5384.4946    2.2760e-16
5385.5101    2.2679e-16
5386.5256    2.2539e-16
5387.5411    2.2664e-16
5388.5566    2.2309e-16
5389.5721    2.2085e-16
5390.5876    2.2422e-16
5391.6031    2.2738e-16
5392.6187    2.2739e-16
5393.6342    2.2435e-16
5394.6497    2.2275e-16
5395.6652    2.2284e-16
5396.6807    2.2262e-16
5397.6962    2.2554e-16
5398.7117    2.3013e-16
5399.7272    2.2656e-16
5400.7427    2.2116e-16
5401.7582    2.2273e-16
5402.7737    2.2410e-16
5403.7892    2.2165e-16
5404.8047    2.2084e-16
5405.8202    2.2470e-16
5406.8357    2.2636e-16
5407.8512    2.2652e-16
5408.8667    2.2571e-16
5409.8823    2.2318e-16
5410.8978    2.2083e-16
5411.9133    2.2163e-16
5412.9288    2.2296e-16
5413.9443    2.2434e-16
5414.9598    2.2350e-16
5415.9753    2.2248e-16
5416.9908    2.2304e-16
5418.0063    2.2328e-16
5419.0218    2.2653e-16
5420.0373    2.2849e-16
5421.0528    2.2597e-16
5422.0683    2.2375e-16
5423.0838    2.2284e-16
5424.0993    2.2020e-16
5425.1148    2.2217e-16
5426.1303    2.2521e-16
5427.1459    2.2392e-16
5428.1614    2.2523e-16
5429.1769    2.2643e-16
5430.1924    2.2376e-16
5431.2079    2.1934e-16
5432.2234    2.1884e-16
5433.2389    2.2047e-16
5434.2544    2.1741e-16
5435.2699    2.1899e-16
5436.2854    2.2158e-16
5437.3009    2.1771e-16
5438.3164    2.2047e-16
5439.3319    2.2027e-16
5440.3474    2.1959e-16
5441.3629    2.2073e-16
5442.3784    2.2360e-16
5443.3940    2.2470e-16
5444.4095    2.2276e-16
5445.4250    2.2056e-16
5446.4405    2.1581e-16
5447.4560    2.1757e-16
5448.4715    2.2253e-16
5449.4870    2.2326e-16
5450.5025    2.1924e-16
5451.5180    2.2378e-16
5452.5335    2.2460e-16
5453.5490    2.2225e-16
5454.5645    2.2216e-16
5455.5800    2.1796e-16
5456.5955    2.2087e-16
5457.6110    2.2081e-16
5458.6265    2.2358e-16
5459.6420    2.2247e-16
5460.6576    2.1906e-16
5461.6731    2.1726e-16
5462.6886    2.2066e-16
5463.7041    2.1874e-16
5464.7196    2.1872e-16
5465.7351    2.1866e-16
5466.7506    2.2296e-16
5467.7661    2.2259e-16
5468.7816    2.2264e-16
5469.7971    2.2650e-16
5470.8126    2.2054e-16
5471.8281    2.2228e-16
5472.8436    2.1962e-16
5473.8591    2.2243e-16
5474.8746    2.1872e-16
5475.8901    2.1777e-16
5476.9056    2.2523e-16
5477.9212    2.2414e-16
5478.9367    2.1950e-16
5479.9522    2.1769e-16
5480.9677    2.1964e-16
5481.9832    2.2172e-16
5482.9987    2.2034e-16
5484.0142    2.1448e-16
5485.0297    2.2036e-16
5486.0452    2.1825e-16
5487.0607    2.1644e-16
5488.0762    2.1900e-16
5489.0917    2.2045e-16
5490.1072    2.1782e-16
5491.1227    2.1715e-16
5492.1382    2.1468e-16
5493.1537    2.2087e-16
5494.1693    2.1692e-16
5495.1848    2.1652e-16
5496.2003    2.1828e-16
5497.2158    2.2352e-16
5498.2313    2.2180e-16
5499.2468    2.1914e-16
5500.2623    2.1863e-16
5501.2778    2.1741e-16
5502.2933    2.1968e-16
5503.3088    2.1644e-16
5504.3243    2.2159e-16
5505.3398    2.1704e-16
5506.3553    2.2054e-16
5507.3708    2.1514e-16
5508.3863    2.1538e-16
5509.4018    2.1822e-16
5510.4173    2.1790e-16
5511.4329    2.1915e-16
5512.4484    2.2020e-16
5513.4639    2.1530e-16
5514.4794    2.2266e-16
5515.4949    2.2316e-16
5516.5104    2.2018e-16
5517.5259    2.2125e-16
5518.5414    2.2236e-16
5519.5569    2.2189e-16
5520.5724    2.1939e-16
5521.5879    2.2379e-16
5522.6034    2.2288e-16
5523.6189    2.2236e-16
5524.6344    2.2143e-16
5525.6499    2.2348e-16
5526.6654    2.2079e-16
5527.6809    2.2355e-16
5528.6965    2.2184e-16
5529.7120    2.2103e-16
5530.7275    2.1974e-16
5531.7430    2.2114e-16
5532.7585    2.1559e-16
5533.7740    2.1816e-16
5534.7895    2.1827e-16
5535.8050    2.2135e-16
5536.8205    2.2233e-16
5537.8360    2.2244e-16
5538.8515    2.1609e-16
5539.8670    2.1458e-16
5540.8825    2.2032e-16
5541.8980    2.1533e-16
5542.9135    2.1537e-16
5543.9290    2.1562e-16
5544.9446    2.1685e-16
5545.9601    2.1996e-16
5546.9756    2.1551e-16
5547.9911    2.1588e-16
5549.0066    2.1765e-16
5550.0221    2.1566e-16
5551.0376    2.1216e-16
5552.0531    2.1459e-16
5553.0686    2.1488e-16
5554.0841    2.1215e-16
5555.0996    2.1398e-16
5556.1151    2.1618e-16
5557.1306    2.1612e-16
5558.1461    2.1317e-16
5559.1616    2.1186e-16
5560.1771    2.1262e-16
5561.1926    2.1399e-16
5562.2082    2.1300e-16
5563.2237    2.1259e-16
5564.2392    2.1160e-16
5565.2547    2.1078e-16
5566.2702    2.1529e-16
5567.2857    2.1422e-16
5568.3012    2.0988e-16
5569.3167    2.1100e-16
5570.3322    2.1185e-16
5571.3477    2.1207e-16
5572.3632    2.1732e-16
5573.3787    2.1620e-16
5574.3942    2.0825e-16
5575.4097    2.0789e-16
5576.4252    2.0979e-16
5577.4407    2.0940e-16
5578.4563    2.0700e-16
5579.4718    2.0933e-16
5580.4873    2.1353e-16
5581.5028    2.1460e-16
5582.5183    2.1076e-16
5583.5338    2.0841e-16
5584.5493    2.0908e-16
5585.5648    2.0729e-16
5586.5803    2.1117e-16
5587.5958    2.1109e-16
5588.6113    2.1051e-16
5589.6268    2.0919e-16
5590.6423    2.0843e-16
5591.6578    2.0896e-16
5592.6733    2.0942e-16
5593.6888    2.1008e-16
5594.7043    2.1019e-16
5595.7199    2.1022e-16
5596.7354    2.1020e-16
5597.7509    2.0911e-16
5598.7664    2.1112e-16
5599.7819    2.1121e-16
5600.7974    2.0806e-16
5601.8129    2.0353e-16
5602.8284    2.0475e-16
5603.8439    2.0796e-16
5604.8594    2.0575e-16
5605.8749    2.0344e-16
5606.8904    2.0714e-16
5607.9059    2.0540e-16
5608.9214    2.0394e-16
5609.9369    2.0793e-16
5610.9524    2.0376e-16
5611.9679    2.0640e-16
5612.9835    2.0523e-16
5613.9990    1.9987e-16
5615.0145    2.0141e-16
5616.0300    2.0028e-16
5617.0455    2.0240e-16
5618.0610    2.0639e-16
5619.0765    2.0401e-16
5620.0920    2.0546e-16
5621.1075    2.0303e-16
5622.1230    2.0530e-16
5623.1385    2.0412e-16
5624.1540    2.0491e-16
5625.1695    2.0499e-16
5626.1850    2.0616e-16
5627.2005    2.0226e-16
5628.2160    2.0545e-16
5629.2316    2.0906e-16
5630.2471    2.0259e-16
5631.2626    2.0169e-16
5632.2781    2.0353e-16
5633.2936    2.0762e-16
5634.3091    2.0513e-16
5635.3246    2.0595e-16
5636.3401    2.0415e-16
5637.3556    2.0549e-16
5638.3711    2.0495e-16
5639.3866    2.0932e-16
5640.4021    2.0298e-16
5641.4176    2.0152e-16
5642.4331    2.0325e-16
5643.4486    1.9933e-16
5644.4641    2.0515e-16
5645.4796    2.0573e-16
5646.4952    2.0139e-16
5647.5107    1.9858e-16
5648.5262    2.0130e-16
5649.5417    1.9836e-16
5650.5572    2.0370e-16
5651.5727    2.0201e-16
5652.5882    2.0572e-16
5653.6037    2.0245e-16
5654.6192    2.0107e-16
5655.6347    2.0111e-16
5656.6502    1.9938e-16
5657.6657    2.0350e-16
5658.6812    2.0079e-16
5659.6967    2.0395e-16
5660.7122    2.0196e-16
5661.7277    2.0680e-16
5662.7432    2.0430e-16
5663.7588    2.0191e-16
5664.7743    1.9862e-16
5665.7898    1.9934e-16
5666.8053    2.0060e-16
5667.8208    2.0138e-16
5668.8363    1.9799e-16
5669.8518    2.0105e-16
5670.8673    2.0372e-16
5671.8828    2.0376e-16
5672.8983    2.0014e-16
5673.9138    1.9803e-16
5674.9293    2.0062e-16
5675.9448    2.0142e-16
5676.9603    2.0132e-16
5677.9758    2.0073e-16
5678.9913    2.0103e-16
5680.0068    2.0121e-16
5681.0224    1.9664e-16
5682.0379    1.9728e-16
5683.0534    1.9841e-16
5684.0689    2.0088e-16
5685.0844    2.0282e-16
5686.0999    2.0160e-16
5687.1154    2.0262e-16
5688.1309    2.0062e-16
5689.1464    1.9908e-16
5690.1619    1.9890e-16
5691.1774    2.0129e-16
5692.1929    1.9997e-16
5693.2084    1.9656e-16
5694.2239    1.9761e-16
5695.2394    1.9717e-16
5696.2549    1.9651e-16
5697.2705    1.9916e-16
5698.2860    2.0120e-16
5699.3015    1.9886e-16
5700.3170    1.9767e-16
5701.3325    1.9736e-16
5702.3480    1.9773e-16
5703.3635    2.0043e-16
5704.3790    2.0030e-16
5705.3945    2.0155e-16
5706.4100    2.0119e-16
5707.4255    2.0211e-16
5708.4410    2.0292e-16
5709.4565    1.9743e-16
5710.4720    1.9851e-16
5711.4875    2.0059e-16
5712.5030    1.9928e-16
5713.5185    1.9987e-16
5714.5341    1.9741e-16
5715.5496    1.9592e-16
5716.5651    1.9867e-16
5717.5806    2.0028e-16
5718.5961    2.0089e-16
5719.6116    2.0097e-16
5720.6271    1.9094e-16
5721.6426    1.8768e-16
5722.6581    1.8785e-16
5723.6736    1.8757e-16
5724.6891    1.8627e-16
5725.7046    1.8745e-16
5726.7201    1.8903e-16
5727.7356    1.9033e-16
5728.7511    1.8922e-16
5729.7666    1.9176e-16
5730.7822    1.9049e-16
5731.7977    1.8536e-16
5732.8132    1.8483e-16
5733.8287    1.8757e-16
5734.8442    1.9101e-16
5735.8597    1.8584e-16
5736.8752    1.8833e-16
5737.8907    1.8714e-16
5738.9062    1.9037e-16
5739.9217    1.8639e-16
5740.9372    1.8777e-16
5741.9527    1.8901e-16
5742.9682    1.8149e-16
5743.9837    1.8741e-16
5744.9992    1.9152e-16
5746.0147    1.8895e-16
5747.0302    1.8533e-16
5748.0458    1.8874e-16
5749.0613    1.8589e-16
5750.0768    1.8624e-16
5751.0923    1.9489e-16
5752.1078    1.9004e-16
5753.1233    1.8668e-16
5754.1388    1.8757e-16
5755.1543    1.8910e-16
5756.1698    1.8685e-16
5757.1853    1.8475e-16
5758.2008    1.8863e-16
5759.2163    1.8651e-16
5760.2318    1.8796e-16
5761.2473    1.9083e-16
5762.2628    1.8436e-16
5763.2783    1.8568e-16
5764.2938    1.9057e-16
5765.3094    1.9082e-16
5766.3249    1.8774e-16
5767.3404    1.8750e-16
5768.3559    1.8560e-16
5769.3714    1.8382e-16
5770.3869    1.8564e-16
5771.4024    1.8830e-16
5772.4179    1.9852e-16
5773.4334    1.9456e-16
5774.4489    1.9316e-16
5775.4644    1.9442e-16
5776.4799    1.9723e-16
5777.4954    1.9407e-16
5778.5109    1.8785e-16
5779.5264    1.8745e-16
5780.5419    1.9335e-16
5781.5575    1.9459e-16
5782.5730    1.8566e-16
5783.5885    1.8707e-16
5784.6040    1.9599e-16
5785.6195    1.9710e-16
5786.6350    1.9279e-16
5787.6505    1.9856e-16
5788.6660    1.9855e-16
5789.6815    1.9357e-16
5790.6970    1.9046e-16
5791.7125    1.9234e-16
5792.7280    1.9748e-16
5793.7435    1.9762e-16
5794.7590    1.9818e-16
5795.7745    1.9811e-16
5796.7900    1.9982e-16
5797.8055    2.0411e-16
5798.8211    2.0309e-16
5799.8366    1.9664e-16
5800.8521    1.9754e-16
5801.8676    2.0173e-16
5802.8831    2.0086e-16
5803.8986    1.9782e-16
5804.9141    1.9741e-16
5805.9296    1.9827e-16
5806.9451    1.9748e-16
5807.9606    1.9729e-16
5808.9761    2.0023e-16
5809.9916    2.0192e-16
5811.0071    1.9875e-16
5812.0226    1.9818e-16
5813.0381    1.9907e-16
5814.0536    1.9844e-16
5815.0691    1.9699e-16
5816.0847    2.0069e-16
5817.1002    2.0419e-16
5818.1157    2.0273e-16
5819.1312    2.0449e-16
5820.1467    2.0766e-16
5821.1622    2.0540e-16
5822.1777    2.0610e-16
5823.1932    2.0455e-16
5824.2087    2.0103e-16
5825.2242    2.0010e-16
5826.2397    2.0024e-16
5827.2552    1.8929e-16
5828.2707    1.8907e-16
5829.2862    1.9269e-16
5830.3017    1.9000e-16
5831.3172    1.8933e-16
5832.3327    1.8705e-16
5833.3483    1.8574e-16
5834.3638    1.8642e-16
5835.3793    1.8981e-16
5836.3948    1.8669e-16
5837.4103    1.8842e-16
5838.4258    1.8959e-16
5839.4413    1.8951e-16
5840.4568    1.9306e-16
5841.4723    1.9143e-16
5842.4878    1.9187e-16
5843.5033    1.9079e-16
5844.5188    1.9065e-16
5845.5343    1.9078e-16
5846.5498    1.8891e-16
5847.5653    1.9001e-16
5848.5808    1.9016e-16
5849.5964    1.9383e-16
5850.6119    1.8671e-16
5851.6274    1.8762e-16
5852.6429    1.8978e-16
5853.6584    1.8730e-16
5854.6739    1.8860e-16
5855.6894    1.9176e-16
5856.7049    1.8671e-16
5857.7204    1.8943e-16
5858.7359    1.9212e-16
5859.7514    1.8611e-16
5860.7669    1.8632e-16
5861.7824    1.9009e-16
5862.7979    1.8975e-16
5863.8134    1.8852e-16
5864.8289    1.9012e-16
5865.8444    1.8636e-16
5866.8600    1.8808e-16
5867.8755    1.9186e-16
5868.8910    1.9382e-16
5869.9065    1.9399e-16
5870.9220    1.9511e-16
5871.9375    1.9261e-16
5872.9530    1.9153e-16
5873.9685    1.8845e-16
5874.9840    1.8844e-16
5875.9995    1.9014e-16
5877.0150    1.8814e-16
5878.0305    1.8461e-16
5879.0460    1.8764e-16
5880.0615    1.8864e-16
5881.0770    1.8804e-16
5882.0925    1.9170e-16
5883.1080    1.9122e-16
5884.1236    1.8836e-16
5885.1391    1.9063e-16
5886.1546    1.9237e-16
5887.1701    1.9100e-16
5888.1856    1.8574e-16
5889.2011    1.8420e-16
5890.2166    1.7840e-16
5891.2321    1.8135e-16
5892.2476    1.8182e-16
5893.2631    1.8304e-16
5894.2786    1.8178e-16
5895.2941    1.7885e-16
5896.3096    1.7799e-16
5897.3251    1.8201e-16
5898.3406    1.8131e-16
5899.3561    1.8576e-16
5900.3717    1.8942e-16
5901.3872    1.8961e-16
5902.4027    1.8844e-16
5903.4182    1.8773e-16
5904.4337    1.9079e-16
5905.4492    1.9152e-16
5906.4647    1.8850e-16
5907.4802    1.8986e-16
5908.4957    1.9005e-16
5909.5112    1.8761e-16
5910.5267    1.8829e-16
5911.5422    1.9388e-16
5912.5577    1.9283e-16
5913.5732    1.8863e-16
5914.5887    1.9387e-16
5915.6042    1.9106e-16
5916.6197    1.9053e-16
5917.6353    1.9358e-16
5918.6508    1.9147e-16
5919.6663    1.8967e-16
5920.6818    1.9072e-16
5921.6973    1.8733e-16
5922.7128    1.8830e-16
5923.7283    1.9141e-16
5924.7438    1.9327e-16
5925.7593    1.8975e-16
5926.7748    1.8710e-16
5927.7903    1.9498e-16
5928.8058    1.9313e-16
5929.8213    1.9094e-16
5930.8368    1.9086e-16
5931.8523    1.9230e-16
5932.8678    1.8737e-16
5933.8834    1.8967e-16
5934.8989    1.9117e-16
5935.9144    1.9014e-16
5936.9299    1.9229e-16
5937.9454    1.8804e-16
5938.9609    1.9254e-16
5939.9764    1.9171e-16
5940.9919    1.9004e-16
5942.0074    1.8833e-16
5943.0229    1.8993e-16
5944.0384    1.8681e-16
5945.0539    1.9359e-16
5946.0694    1.8368e-16
5947.0849    1.8512e-16
5948.1004    1.8484e-16
5949.1159    1.8829e-16
5950.1314    1.8633e-16
5951.1470    1.8436e-16
5952.1625    1.8411e-16
5953.1780    1.8532e-16
5954.1935    1.8835e-16
5955.2090    1.8844e-16
5956.2245    1.8901e-16
5957.2400    1.8940e-16
5958.2555    1.8645e-16
5959.2710    1.8703e-16
5960.2865    1.8757e-16
5961.3020    1.8751e-16
5962.3175    1.8518e-16
5963.3330    1.8524e-16
5964.3485    1.8609e-16
5965.3640    1.8640e-16
5966.3795    1.8627e-16
5967.3950    1.8210e-16
5968.4106    1.8081e-16
5969.4261    1.8278e-16
5970.4416    1.8551e-16
5971.4571    1.8694e-16
5972.4726    1.8486e-16
5973.4881    1.8369e-16
5974.5036    1.8231e-16
5975.5191    1.8271e-16
5976.5346    1.8457e-16
5977.5501    1.8253e-16
5978.5656    1.8334e-16
5979.5811    1.8441e-16
5980.5966    1.8648e-16
5981.6121    1.8658e-16
5982.6276    1.8554e-16
5983.6431    1.8358e-16
5984.6586    1.8588e-16
5985.6742    1.8201e-16
5986.6897    1.7869e-16
5987.7052    1.8131e-16
5988.7207    1.8176e-16
5989.7362    1.8137e-16
5990.7517    1.8219e-16
5991.7672    1.8195e-16
5992.7827    1.8528e-16
5993.7982    1.8202e-16
5994.8137    1.8584e-16
5995.8292    1.8466e-16
5996.8447    1.8545e-16
5997.8602    1.8837e-16
5998.8757    1.8446e-16
5999.8912    1.8969e-16
6000.9067    1.8487e-16
6001.9223    1.8531e-16
6002.9378    1.9153e-16
6003.9533    1.9314e-16
6004.9688    1.9349e-16
6005.9843    1.9006e-16
6006.9998    1.9394e-16
6008.0153    1.9578e-16
6009.0308    1.9306e-16
6010.0463    1.8826e-16
6011.0618    1.8918e-16
6012.0773    1.8498e-16
6013.0928    1.8895e-16
6014.1083    1.9176e-16
6015.1238    1.8849e-16
6016.1393    1.8919e-16
6017.1548    1.8303e-16
6018.1703    1.7570e-16
6019.1859    1.6480e-16
6020.2014    1.5826e-16
6021.2169    1.6229e-16
6022.2324    1.6817e-16
6023.2479    1.7370e-16
6024.2634    1.7627e-16
6025.2789    1.7231e-16
6026.2944    1.6499e-16
6027.3099    1.6654e-16
6028.3254    1.7050e-16
6029.3409    1.7296e-16
6030.3564    1.7976e-16
6031.3719    1.8258e-16
6032.3874    1.8500e-16
6033.4029    1.8383e-16
6034.4184    1.7946e-16
6035.4340    1.7947e-16
6036.4495    1.8056e-16
6037.4650    1.8105e-16
6038.4805    1.8009e-16
6039.4960    1.8176e-16
6040.5115    1.8461e-16
6041.5270    1.8193e-16
6042.5425    1.7788e-16
6043.5580    1.7850e-16
6044.5735    1.7930e-16
6045.5890    1.8142e-16
6046.6045    1.8539e-16
6047.6200    1.8072e-16
6048.6355    1.7762e-16
6049.6510    1.7927e-16
6050.6665    1.8098e-16
6051.6820    1.8116e-16
6052.6976    1.8334e-16
6053.7131    1.8428e-16
6054.7286    1.8240e-16
6055.7441    1.8030e-16
6056.7596    1.8170e-16
6057.7751    1.8185e-16
6058.7906    1.8102e-16
6059.8061    1.7948e-16
6060.8216    1.8096e-16
6061.8371    1.8161e-16
6062.8526    1.7716e-16
6063.8681    1.7973e-16
6064.8836    1.7987e-16
6065.8991    1.8009e-16
6066.9146    1.7881e-16
6067.9301    1.7935e-16
6068.9456    1.8189e-16
6069.9612    1.8246e-16
6070.9767    1.7943e-16
6071.9922    1.7889e-16
6073.0077    1.8219e-16
6074.0232    1.7653e-16
6075.0387    1.7862e-16
6076.0542    1.7796e-16
6077.0697    1.8021e-16
6078.0852    1.7995e-16
6079.1007    1.8071e-16
6080.1162    1.7926e-16
6081.1317    1.7898e-16
6082.1472    1.7565e-16
6083.1627    1.7805e-16
6084.1782    1.7622e-16
6085.1937    1.7848e-16
6086.2092    1.7698e-16
6087.2248    1.7797e-16
6088.2403    1.8052e-16
6089.2558    1.7599e-16
6090.2713    1.7511e-16
6091.2868    1.7929e-16
6092.3023    1.7993e-16
6093.3178    1.7728e-16
6094.3333    1.7880e-16
6095.3488    1.7867e-16
6096.3643    1.7825e-16
6097.3798    1.8063e-16
6098.3953    1.7804e-16
6099.4108    1.7400e-16
6100.4263    1.7643e-16
6101.4418    1.7692e-16
6102.4573    1.7655e-16
6103.4729    1.7581e-16
6104.4884    1.7810e-16
6105.5039    1.7738e-16
6106.5194    1.7638e-16
6107.5349    1.7551e-16
6108.5504    1.7599e-16
6109.5659    1.7659e-16
6110.5814    1.7533e-16
6111.5969    1.7417e-16
6112.6124    1.7573e-16
6113.6279    1.7665e-16
6114.6434    1.7712e-16
6115.6589    1.7495e-16
6116.6744    1.7505e-16
6117.6899    1.7406e-16
6118.7054    1.7535e-16
6119.7209    1.7543e-16
6120.7365    1.7321e-16
6121.7520    1.7256e-16
6122.7675    1.7612e-16
6123.7830    1.7774e-16
6124.7985    1.7684e-16
6125.8140    1.7530e-16
6126.8295    1.7408e-16
6127.8450    1.7365e-16
6128.8605    1.7475e-16
6129.8760    1.7498e-16
6130.8915    1.7582e-16
6131.9070    1.7249e-16
6132.9225    1.7353e-16
6133.9380    1.7470e-16
6134.9535    1.7298e-16
6135.9690    1.7390e-16
6136.9846    1.7362e-16
6138.0001    1.7522e-16
6139.0156    1.7498e-16
6140.0311    1.7528e-16
6141.0466    1.7506e-16
6142.0621    1.7281e-16
6143.0776    1.7149e-16
6144.0931    1.7256e-16
6145.1086    1.7315e-16
6146.1241    1.7299e-16
6147.1396    1.7219e-16
6148.1551    1.7351e-16
6149.1706    1.7110e-16
6150.1861    1.7118e-16
6151.2016    1.7158e-16
6152.2171    1.7392e-16
6153.2326    1.7504e-16
6154.2482    1.7687e-16
6155.2637    1.7462e-16
6156.2792    1.7475e-16
6157.2947    1.7202e-16
6158.3102    1.6892e-16
6159.3257    1.7314e-16
6160.3412    1.7436e-16
6161.3567    1.7574e-16
6162.3722    1.7432e-16
6163.3877    1.7185e-16
6164.4032    1.7204e-16
6165.4187    1.7245e-16
6166.4342    1.7081e-16
6167.4497    1.6859e-16
6168.4652    1.7111e-16
6169.4807    1.7417e-16
6170.4962    1.7254e-16
6171.5118    1.7007e-16
6172.5273    1.7339e-16
6173.5428    1.6961e-16
6174.5583    1.6930e-16
6175.5738    1.7118e-16
6176.5893    1.7006e-16
6177.6048    1.7255e-16
6178.6203    1.7511e-16
6179.6358    1.7215e-16
6180.6513    1.7278e-16
6181.6668    1.7070e-16
6182.6823    1.7090e-16
6183.6978    1.7142e-16
6184.7133    1.7078e-16
6185.7288    1.7069e-16
6186.7443    1.7042e-16
6187.7599    1.7043e-16
6188.7754    1.6799e-16
6189.7909    1.6929e-16
6190.8064    1.7101e-16
6191.8219    1.7131e-16
6192.8374    1.7066e-16
6193.8529    1.7133e-16
6194.8684    1.7263e-16
6195.8839    1.7091e-16
6196.8994    1.7129e-16
6197.9149    1.7216e-16
6198.9304    1.7239e-16
6199.9459    1.7206e-16
6200.9614    1.7211e-16
6201.9769    1.7230e-16
6202.9924    1.6981e-16
6204.0079    1.6722e-16
6205.0235    1.6737e-16
6206.0390    1.7024e-16
6207.0545    1.7128e-16
6208.0700    1.7018e-16
6209.0855    1.7083e-16
6210.1010    1.7189e-16
6211.1165    1.7165e-16
6212.1320    1.7154e-16
6213.1475    1.7150e-16
6214.1630    1.6843e-16
6215.1785    1.6733e-16
6216.1940    1.7027e-16
6217.2095    1.6905e-16
6218.2250    1.7192e-16
6219.2405    1.7046e-16
6220.2560    1.7093e-16
6221.2715    1.7119e-16
6222.2871    1.7207e-16
6223.3026    1.7084e-16
6224.3181    1.6978e-16
6225.3336    1.6819e-16
6226.3491    1.7020e-16
6227.3646    1.6981e-16
6228.3801    1.6920e-16
6229.3956    1.6599e-16
6230.4111    1.7041e-16
6231.4266    1.6760e-16
6232.4421    1.6639e-16
6233.4576    1.6623e-16
6234.4731    1.6941e-16
6235.4886    1.6993e-16
6236.5041    1.6948e-16
6237.5196    1.7154e-16
6238.5351    1.7181e-16
6239.5507    1.6863e-16
6240.5662    1.6872e-16
6241.5817    1.6799e-16
6242.5972    1.6944e-16
6243.6127    1.6973e-16
6244.6282    1.6585e-16
6245.6437    1.6609e-16
6246.6592    1.6744e-16
6247.6747    1.6974e-16
6248.6902    1.6485e-16
6249.7057    1.6884e-16
6250.7212    1.6933e-16
6251.7367    1.6885e-16
6252.7522    1.6965e-16
6253.7677    1.6628e-16
6254.7832    1.6500e-16
6255.7988    1.6680e-16
6256.8143    1.6704e-16
6257.8298    1.6726e-16
6258.8453    1.6810e-16
6259.8608    1.6574e-16
6260.8763    1.6567e-16
6261.8918    1.6681e-16
6262.9073    1.6685e-16
6263.9228    1.6684e-16
6264.9383    1.6724e-16
6265.9538    1.6419e-16
6266.9693    1.6555e-16
6267.9848    1.6661e-16
6269.0003    1.6463e-16
6270.0158    1.6437e-16
6271.0313    1.6695e-16
6272.0468    1.6672e-16
6273.0624    1.6800e-16
6274.0779    1.6692e-16
6275.0934    1.6454e-16
6276.1089    1.6143e-16
6277.1244    1.5712e-16
6278.1399    1.5639e-16
6279.1554    1.5669e-16
6280.1709    1.5811e-16
6281.1864    1.6012e-16
6282.2019    1.5880e-16
6283.2174    1.6041e-16
6284.2329    1.5847e-16
6285.2484    1.6087e-16
6286.2639    1.6455e-16
6287.2794    1.6364e-16
6288.2949    1.6273e-16
6289.3104    1.6060e-16
6290.3260    1.6115e-16
6291.3415    1.6287e-16
6292.3570    1.6241e-16
6293.3725    1.6307e-16
6294.3880    1.6414e-16
6295.4035    1.6272e-16
6296.4190    1.6218e-16
6297.4345    1.6157e-16
6298.4500    1.6266e-16
6299.4655    1.6484e-16
6300.4810    1.6184e-16
6301.4965    1.6293e-16
6302.5120    1.6358e-16
6303.5275    1.6267e-16
6304.5430    1.6248e-16
6305.5585    1.6150e-16
6306.5741    1.6423e-16
6307.5896    1.6603e-16
6308.6051    1.6429e-16
6309.6206    1.6023e-16
6310.6361    1.6180e-16
6311.6516    1.6291e-16
6312.6671    1.6267e-16
6313.6826    1.6224e-16
6314.6981    1.6326e-16
6315.7136    1.6322e-16
6316.7291    1.6314e-16
6317.7446    1.6239e-16
6318.7601    1.6348e-16
6319.7756    1.6443e-16
6320.7911    1.6230e-16
6321.8066    1.6212e-16
6322.8221    1.6490e-16
6323.8377    1.6242e-16
6324.8532    1.6302e-16
6325.8687    1.6430e-16
6326.8842    1.6469e-16
6327.8997    1.6177e-16
6328.9152    1.6230e-16
6329.9307    1.6306e-16
6330.9462    1.6285e-16
6331.9617    1.6304e-16
6332.9772    1.6232e-16
6333.9927    1.6333e-16
6335.0082    1.6122e-16
6336.0237    1.5958e-16
6337.0392    1.6065e-16
6338.0547    1.6222e-16
6339.0702    1.6410e-16
6340.0858    1.6086e-16
6341.1013    1.6162e-16
6342.1168    1.6136e-16
6343.1323    1.6185e-16
6344.1478    1.6370e-16
6345.1633    1.6730e-16
6346.1788    1.6674e-16
6347.1943    1.6287e-16
6348.2098    1.6239e-16
6349.2253    1.6206e-16
6350.2408    1.6289e-16
6351.2563    1.5961e-16
6352.2718    1.6068e-16
6353.2873    1.6240e-16
6354.3028    1.6347e-16
6355.3183    1.6065e-16
6356.3338    1.5958e-16
6357.3494    1.6085e-16
6358.3649    1.6014e-16
6359.3804    1.6236e-16
6360.3959    1.6026e-16
6361.4114    1.6020e-16
6362.4269    1.6079e-16
6363.4424    1.6153e-16
6364.4579    1.6406e-16
6365.4734    1.6438e-16
6366.4889    1.6398e-16
6367.5044    1.6166e-16
6368.5199    1.6094e-16
6369.5354    1.6149e-16
6370.5509    1.6191e-16
6371.5664    1.6246e-16
6372.5819    1.6316e-16
6373.5974    1.6470e-16
6374.6130    1.6336e-16
6375.6285    1.6283e-16
6376.6440    1.6323e-16
6377.6595    1.6322e-16
6378.6750    1.6343e-16
6379.6905    1.6264e-16
6380.7060    1.6255e-16
6381.7215    1.6112e-16
6382.7370    1.5828e-16
6383.7525    1.5972e-16
6384.7680    1.6139e-16
6385.7835    1.6194e-16
6386.7990    1.6187e-16
6387.8145    1.6019e-16
6388.8300    1.5998e-16
6389.8455    1.5957e-16
6390.8610    1.6081e-16
6391.8766    1.6075e-16
6392.8921    1.6073e-16
6393.9076    1.6309e-16
6394.9231    1.6336e-16
6395.9386    1.6181e-16
6396.9541    1.6206e-16
6397.9696    1.6210e-16
6398.9851    1.6134e-16
6400.0006    1.6021e-16
6401.0161    1.6240e-16
6402.0316    1.6272e-16
6403.0471    1.6357e-16
6404.0626    1.6104e-16
6405.0781    1.6051e-16
6406.0936    1.5951e-16
6407.1091    1.6087e-16
6408.1247    1.6239e-16
6409.1402    1.6206e-16
6410.1557    1.6128e-16
6411.1712    1.6345e-16
6412.1867    1.6039e-16
6413.2022    1.6120e-16
6414.2177    1.6054e-16
6415.2332    1.5878e-16
6416.2487    1.6016e-16
6417.2642    1.6182e-16
6418.2797    1.5701e-16
6419.2952    1.5904e-16
6420.3107    1.6017e-16
6421.3262    1.5984e-16
6422.3417    1.6046e-16
6423.3572    1.5730e-16
6424.3727    1.6023e-16
6425.3883    1.6127e-16
6426.4038    1.6046e-16
6427.4193    1.5881e-16
6428.4348    1.5872e-16
6429.4503    1.5735e-16
6430.4658    1.5853e-16
6431.4813    1.5803e-16
6432.4968    1.5593e-16
6433.5123    1.5696e-16
6434.5278    1.5933e-16
6435.5433    1.5829e-16
6436.5588    1.5883e-16
6437.5743    1.6115e-16
6438.5898    1.6044e-16
6439.6053    1.5722e-16
6440.6208    1.5726e-16
6441.6363    1.6060e-16
6442.6519    1.6143e-16
6443.6674    1.5871e-16
6444.6829    1.5765e-16
6445.6984    1.5933e-16
6446.7139    1.5960e-16
6447.7294    1.5882e-16
6448.7449    1.5824e-16
6449.7604    1.5773e-16
6450.7759    1.5906e-16
6451.7914    1.5813e-16
6452.8069    1.5650e-16
6453.8224    1.5801e-16
6454.8379    1.5922e-16
6455.8534    1.5477e-16
6456.8689    1.5593e-16
6457.8844    1.5611e-16
6458.9000    1.5696e-16
6459.9155    1.5854e-16
6460.9310    1.5982e-16
6461.9465    1.5886e-16
6462.9620    1.5953e-16
6463.9775    1.5736e-16
6464.9930    1.5798e-16
6466.0085    1.5920e-16
6467.0240    1.5842e-16
6468.0395    1.5370e-16
6469.0550    1.5445e-16
6470.0705    1.5651e-16
6471.0860    1.5756e-16
6472.1015    1.5586e-16
6473.1170    1.5635e-16
6474.1325    1.5491e-16
6475.1480    1.5390e-16
6476.1636    1.5296e-16
6477.1791    1.5435e-16
6478.1946    1.5402e-16
6479.2101    1.5831e-16
6480.2256    1.5617e-16
6481.2411    1.5472e-16
6482.2566    1.5419e-16
6483.2721    1.5703e-16
6484.2876    1.5640e-16
6485.3031    1.5594e-16
6486.3186    1.5840e-16
6487.3341    1.5856e-16
6488.3496    1.5653e-16
6489.3651    1.5609e-16
6490.3806    1.5592e-16
6491.3961    1.5475e-16
6492.4117    1.5512e-16
6493.4272    1.5305e-16
6494.4427    1.5286e-16
6495.4582    1.5744e-16
6496.4737    1.5779e-16
6497.4892    1.5639e-16
6498.5047    1.5656e-16
6499.5202    1.5506e-16
6500.5357    1.5464e-16
6501.5512    1.5476e-16
6502.5667    1.5545e-16
6503.5822    1.5736e-16
6504.5977    1.5741e-16
6505.6132    1.5672e-16
6506.6287    1.5721e-16
6507.6442    1.5650e-16
6508.6597    1.5614e-16
6509.6753    1.5634e-16
6510.6908    1.5447e-16
6511.7063    1.5467e-16
6512.7218    1.5389e-16
6513.7373    1.5437e-16
6514.7528    1.5345e-16
6515.7683    1.5318e-16
6516.7838    1.5287e-16
6517.7993    1.5072e-16
6518.8148    1.5315e-16
6519.8303    1.5407e-16
6520.8458    1.5287e-16
6521.8613    1.5391e-16
6522.8768    1.5287e-16
6523.8923    1.5454e-16
6524.9078    1.5645e-16
6525.9233    1.5424e-16
6526.9389    1.5543e-16
6527.9544    1.5477e-16
6528.9699    1.5493e-16
6529.9854    1.5412e-16
6531.0009    1.5647e-16
6532.0164    1.5327e-16
6533.0319    1.5364e-16
6534.0474    1.5670e-16
6535.0629    1.5560e-16
6536.0784    1.5667e-16
6537.0939    1.5453e-16
6538.1094    1.5406e-16
6539.1249    1.5494e-16
6540.1404    1.5427e-16
6541.1559    1.5392e-16
6542.1714    1.5281e-16
6543.1869    1.5196e-16
6544.2025    1.5292e-16
6545.2180    1.5277e-16
6546.2335    1.5246e-16
6547.2490    1.5298e-16
6548.2645    1.5346e-16
6549.2800    1.5263e-16
6550.2955    1.5149e-16
6551.3110    1.5184e-16
6552.3265    1.5425e-16
6553.3420    1.5323e-16
6554.3575    1.5129e-16
6555.3730    1.5252e-16
6556.3885    1.5240e-16
6557.4040    1.5577e-16
6558.4195    1.5686e-16
6559.4350    1.5367e-16
6560.4506    1.5439e-16
6561.4661    1.5592e-16
6562.4816    1.5353e-16
6563.4971    1.5365e-16
6564.5126    1.5519e-16
6565.5281    1.5593e-16
6566.5436    1.5444e-16
6567.5591    1.5484e-16
6568.5746    1.5400e-16
6569.5901    1.5477e-16
6570.6056    1.5519e-16
6571.6211    1.5642e-16
6572.6366    1.5379e-16
6573.6521    1.5482e-16
6574.6676    1.5530e-16
6575.6831    1.5281e-16
6576.6986    1.5349e-16
6577.7142    1.5482e-16
6578.7297    1.5223e-16
6579.7452    1.5444e-16
6580.7607    1.5539e-16
6581.7762    1.5277e-16
6582.7917    1.5197e-16
6583.8072    1.5399e-16
6584.8227    1.5370e-16
6585.8382    1.5176e-16
6586.8537    1.5302e-16
6587.8692    1.5331e-16
6588.8847    1.5328e-16
6589.9002    1.5216e-16
6590.9157    1.5146e-16
6591.9312    1.5165e-16
6592.9467    1.5227e-16
6593.9623    1.5258e-16
6594.9778    1.5215e-16
6595.9933    1.5253e-16
6597.0088    1.5384e-16
6598.0243    1.5340e-16
6599.0398    1.5317e-16
6600.0553    1.5180e-16
6601.0708    1.5195e-16
6602.0863    1.5356e-16
6603.1018    1.5136e-16
6604.1173    1.5113e-16
6605.1328    1.5333e-16
6606.1483    1.5303e-16
6607.1638    1.5287e-16
6608.1793    1.5297e-16
6609.1948    1.5361e-16
6610.2103    1.5266e-16
6611.2259    1.5180e-16
6612.2414    1.5191e-16
6613.2569    1.5206e-16
6614.2724    1.5267e-16
6615.2879    1.5348e-16
6616.3034    1.5278e-16
6617.3189    1.5298e-16
6618.3344    1.5036e-16
6619.3499    1.5015e-16
6620.3654    1.5458e-16
6621.3809    1.5281e-16
6622.3964    1.5001e-16
6623.4119    1.5235e-16
6624.4274    1.5264e-16
6625.4429    1.5137e-16
6626.4584    1.5308e-16
6627.4739    1.5268e-16
6628.4895    1.5244e-16
6629.5050    1.5348e-16
6630.5205    1.5431e-16
6631.5360    1.5285e-16
6632.5515    1.5100e-16
6633.5670    1.5216e-16
6634.5825    1.5447e-16
6635.5980    1.5149e-16
6636.6135    1.5124e-16
6637.6290    1.5383e-16
6638.6445    1.5412e-16
6639.6600    1.5297e-16
6640.6755    1.5112e-16
6641.6910    1.5256e-16
6642.7065    1.5076e-16
6643.7220    1.5175e-16
6644.7375    1.5396e-16
6645.7531    1.5180e-16
6646.7686    1.5131e-16
6647.7841    1.5238e-16
6648.7996    1.5243e-16
6649.8151    1.5300e-16
6650.8306    1.5250e-16
6651.8461    1.5215e-16
6652.8616    1.5334e-16
6653.8771    1.5417e-16
6654.8926    1.5472e-16
6655.9081    1.5491e-16
6656.9236    1.5404e-16
6657.9391    1.5299e-16
6658.9546    1.5395e-16
6659.9701    1.5546e-16
6660.9856    1.5410e-16
6662.0012    1.5661e-16
6663.0167    1.5469e-16
6664.0322    1.5461e-16
6665.0477    1.5355e-16
6666.0632    1.5237e-16
6667.0787    1.5286e-16
6668.0942    1.5469e-16
6669.1097    1.5576e-16
6670.1252    1.5649e-16
6671.1407    1.5428e-16
6672.1562    1.5598e-16
6673.1717    1.5915e-16
6674.1872    1.5441e-16
6675.2027    1.5332e-16
6676.2182    1.5756e-16
6677.2337    1.5908e-16
6678.2492    1.5640e-16
6679.2648    1.5634e-16
6680.2803    1.5694e-16
6681.2958    1.5900e-16
6682.3113    1.5935e-16
6683.3268    1.5608e-16
6684.3423    1.5883e-16
6685.3578    1.6097e-16
6686.3733    1.6293e-16
6687.3888    1.6332e-16
6688.4043    1.6193e-16
6689.4198    1.6262e-16
6690.4353    1.6547e-16
6691.4508    1.6809e-16
6692.4663    1.6875e-16
6693.4818    1.7233e-16
6694.4973    1.7652e-16
6695.5129    1.7397e-16
6696.5284    1.7019e-16
6697.5439    1.6925e-16
6698.5594    1.6960e-16
6699.5749    1.7180e-16
6700.5904    1.7512e-16
6701.6059    1.7811e-16
6702.6214    1.7931e-16
6703.6369    1.8124e-16
6704.6524    1.9082e-16
6705.6679    2.1211e-16
6706.6834    2.3610e-16
6707.6989    2.5404e-16
6708.7144    2.5877e-16
6709.7299    2.4569e-16
6710.7454    2.2088e-16
6711.7609    1.9283e-16
6712.7765    1.7733e-16
6713.7920    1.7503e-16
6714.8075    1.7412e-16
6715.8230    1.7441e-16
6716.8385    1.7421e-16
6717.8540    1.6931e-16
6718.8695    1.7022e-16
6719.8850    1.6605e-16
6720.9005    1.6457e-16
6721.9160    1.6759e-16
6722.9315    1.6702e-16
6723.9470    1.6474e-16
6724.9625    1.6108e-16
6725.9780    1.6936e-16
6726.9935    1.7428e-16
6728.0090    1.8445e-16
6729.0245    1.8492e-16
6730.0401    1.8441e-16
6731.0556    1.7877e-16
6732.0711    1.7138e-16
6733.0866    1.6300e-16
6734.1021    1.5795e-16
6735.1176    1.5753e-16
6736.1331    1.5759e-16
6737.1486    1.5759e-16
6738.1641    1.5924e-16
6739.1796    1.5891e-16
6740.1951    1.5657e-16
6741.2106    1.5839e-16
6742.2261    1.5836e-16
6743.2416    1.5423e-16
6744.2571    1.5329e-16
6745.2726    1.5442e-16
6746.2882    1.5541e-16
6747.3037    1.5628e-16
6748.3192    1.5648e-16
6749.3347    1.5570e-16
6750.3502    1.5422e-16
6751.3657    1.5363e-16
6752.3812    1.5492e-16
6753.3967    1.5413e-16
6754.4122    1.5474e-16
6755.4277    1.5436e-16
6756.4432    1.5485e-16
6757.4587    1.5201e-16
6758.4742    1.5076e-16
6759.4897    1.5348e-16
6760.5052    1.5228e-16
6761.5207    1.5302e-16
6762.5362    1.5568e-16
6763.5518    1.5153e-16
6764.5673    1.5245e-16
6765.5828    1.5245e-16
6766.5983    1.5134e-16
6767.6138    1.5223e-16
6768.6293    1.5280e-16
6769.6448    1.4745e-16
6770.6603    1.4981e-16
6771.6758    1.4848e-16
6772.6913    1.5731e-16
6773.7068    1.5635e-16
6774.7223    1.5412e-16
6775.7378    1.5042e-16
6776.7533    1.4740e-16
6777.7688    1.4738e-16
6778.7843    1.4979e-16
6779.7998    1.4955e-16
6780.8154    1.4827e-16
6781.8309    1.4677e-16
6782.8464    1.4608e-16
6783.8619    1.4779e-16
6784.8774    1.4590e-16
6785.8929    1.4313e-16
6786.9084    1.4548e-16
6787.9239    1.4835e-16
6788.9394    1.4789e-16
6789.9549    1.4680e-16
6790.9704    1.4575e-16
6791.9859    1.4550e-16
6793.0014    1.4528e-16
6794.0169    1.4571e-16
6795.0324    1.4636e-16
6796.0479    1.4499e-16
6797.0634    1.4398e-16
6798.0790    1.4587e-16
6799.0945    1.4578e-16
6800.1100    1.4571e-16
6801.1255    1.4443e-16
6802.1410    1.4453e-16
6803.1565    1.4425e-16
6804.1720    1.4459e-16
6805.1875    1.4319e-16
6806.2030    1.4392e-16
6807.2185    1.4360e-16
6808.2340    1.4137e-16
6809.2495    1.4185e-16
6810.2650    1.4768e-16
6811.2805    1.4223e-16
6812.2960    1.4381e-16
6813.3115    1.4777e-16
6814.3271    1.5046e-16
6815.3426    1.4402e-16
6816.3581    1.4962e-16
6817.3736    1.4890e-16
6818.3891    1.4919e-16
6819.4046    1.4493e-16
6820.4201    1.4670e-16
6821.4356    1.4734e-16
6822.4511    1.4747e-16
6823.4666    1.4728e-16
6824.4821    1.4801e-16
6825.4976    1.5039e-16
6826.5131    1.4929e-16
6827.5286    1.4910e-16
6828.5441    1.5089e-16
6829.5596    1.5039e-16
6830.5751    1.4951e-16
6831.5907    1.4928e-16
6832.6062    1.4946e-16
6833.6217    1.4974e-16
6834.6372    1.4800e-16
6835.6527    1.4632e-16
6836.6682    1.4592e-16
6837.6837    1.4619e-16
6838.6992    1.4702e-16
6839.7147    1.4885e-16
6840.7302    1.4846e-16
6841.7457    1.4706e-16
6842.7612    1.4732e-16
6843.7767    1.4681e-16
6844.7922    1.4930e-16
6845.8077    1.4925e-16
6846.8232    1.4939e-16
6847.8387    1.4951e-16
6848.8543    1.4585e-16
6849.8698    1.5050e-16
6850.8853    1.5052e-16
6851.9008    1.5218e-16
6852.9163    1.4875e-16
6853.9318    1.4866e-16
6854.9473    1.4712e-16
6855.9628    1.4387e-16
6856.9783    1.4504e-16
6857.9938    1.5069e-16
6859.0093    1.4554e-16
6860.0248    1.4756e-16
6861.0403    1.4850e-16
