# SIMPLE  =                    T / Fits standard                                  
# BITPIX  =                   16 / Bits per pixel                                 
# NAXIS   =                    0 / Number of axes                                 
# EXTEND  =                    T / File may contain extensions                    
# ORIGIN  = 'NOAO-IRAF FITS Image Kernel July 2003' / FITS file originator        
# DATE    = '2020-09-25T15:35:10' / Date FITS file was generated                  
# IRAF-TLM= '2020-09-25T16:46:02' / Time of last modification                     
# COMMENT   FITS (Flexible Image Transport System) format is defined in 'Astronomy
# COMMENT   and Astrophysics', volume 376, page 359; bibcode: 2001A&A...376..359H 
# INSTRUME= 'GMOS-N  '           / Instrument used to acquire data                
# OBJECT  = 'ZTF20acdqjeq'       / Object Name                                    
# OBSTYPE = 'OBJECT  '           / Observation type                               
# OBSCLASS= 'science '           / Observe class                                  
# GEMPRGID= 'GN-2020B-Q-901'     / Gemini programme ID                            
# OBSID   = 'GN-2020B-Q-901-80'  / Observation ID / Data label                    
# DATALAB = 'GN-2020B-Q-901-80-002' / DHS data label                              
# OBSERVER= 'J. Chu  '           / Observer                                       
# OBSERVAT= 'Gemini-North'       / Name of telescope (Gemini-North|Gemini-South)  
# TELESCOP= 'Gemini-North'       / Gemini-North                                   
# PARALLAX=                   0. / Parallax of Target                             
# RADVEL  =                   0. / Heliocentric Radial Velocity                   
# EPOCH   =                2000. / Epoch for Target coordinates                   
# EQUINOX =                2000. / Equinox of coordinate system                   
# TRKEQUIN=                2000. / Tracking equinox                               
# SSA     = 'B. Cooper'          / SSA                                            
# RA      =          31.70558333 / Right Ascension                                
# DEC     =          44.58758333 / Declination of Target                          
# ELEVATIO=     63.4518166666667 / Current Elevation                              
# AZIMUTH =    -18.0739597222222 / Current Azimuth                                
# CRPA    =    -10.0340310425283 / Current Cass Rotator Position Angle            
# HA      = '+00:45:06.70'       / Telescope hour angle                           
# LT      = '02:55:54.6'         / Local time at start of observation             
# TRKFRAME= 'FK5     '           / Tracking co-ordinate                           
# DECTRACK=                   0. / Differential tracking rate Dec                 
# TRKEPOCH=         59117.531909 / Differential tracking reference epoch          
# RATRACK =                   0. / Differential tracking rate RA                  
# FRAME   = 'FK5     '           / Target coordinate system                       
# PMDEC   =                   0. / Proper Motion in Declination                   
# PMRA    =                   0. / Proper Motion in RA                            
# WAVELENG=                5200. / Effective Target Wavelength                    
# RAWIQ   = '20-percentile'      / Raw Image Quality                              
# RAWCC   = '50-percentile'      / Raw Cloud Cover                                
# RAWWV   = 'UNKNOWN '           / Raw Water Vapour/Transparency                  
# RAWBG   = 'UNKNOWN '           / Raw Background                                 
# RAWPIREQ= 'YES     '                                                            
# RAWGEMQA= 'USABLE  '                                                            
# CGUIDMOD= 'Basic   '           / Carousel Mode                                  
# UT      = '12:55:55.1'         / UT at observation start                        
# M2BAFFLE= 'VISIBLE '           / Position of M2 baffle                          
# M2CENBAF= 'CLOSED  '           / Position of M2 central hole baffle             
# ST      = '02:53:14.9'         / Sidereal time at the start of the exposure     
# XOFFSET =    0.210907846617166 / Telescope offset in x in arcsec                
# YOFFSET =    0.613676439751034 / Telescope offset in y in arcsec                
# POFFSET =    0.212000000622424 / Telescope offset in p in arcsec                
# QOFFSET =    0.613300001798702 / Telescope offset in q in arcsec                
# RAOFFSET=    0.172989688680516 / Telescope offset in RA in arcsec               
# DECOFFSE=   -0.625424224091467 / Telescope offset in DEC in arcsec              
# RATRGOFF=                   0. / Target offset in RA in arcsec                  
# DECTRGOF=                   0. / Target offset in DEC in arcsec                 
# PA      =               145.47 / Sky Position Angle at start of exposure        
# IAA     =              179.898 / Instrument Alignment Angle                     
# SFRT2   =              178.842 / Science fold rotation angle (degrees)          
# SFTILT  =                44.93 / Science fold tilt angle (degrees)              
# SFLINEAR=                  -2. / Science fold linear position (mm)              
# AOFOLD  = 'park-pos.'          / AO Pick-Off Mirror Position                    
# PWFS1_ST= 'parked  '           / PWFS1 probe state (frozen,guiding,parked)      
# PWFS2_ST= 'parked  '           / PWFS2 probe state (frozen,guiding,parked)      
# OIWFS_ST= 'guiding '           / OIWFS probe state (frozen,guiding,parked)      
# AOWFS_ST= 'parked  '           / AOWFS probe state (frozen,guiding,parked)      
# SCIBAND =                    1 / Science Ranking Band                           
# REQIQ   = 'Any     '           / Requested Image Quality                        
# REQCC   = '70-percentile'      / Requested Cloud Cover                          
# REQBG   = 'Any     '           / Requested Background                           
# REQWV   = 'Any     '           / Requested Water Vapour                         
# NUMREQTW=                    1 / Number of Requested Timing Window REQTW entries
# REQMINAM=                   1. / Requested Minimum Airmass                      
# REQMAXAM=                   2. / Requested Maximum Airmass                      
# REQTWS01= '2020-09-25T12:40:42' / Requested Timing Window 01 Start (UTC)        
# REQTWD01=               86400. / Requested Timing Window 01 Duration [seconds]  
# REQTWN01=                    0 / Requested Timing Window 01 Number of Repeats   
# REQTWP01=                   0. / Requested Timing Window 01 Repeat Period [secon
# OIARA   =              31.7773 / RA of OIWFS guide star                         
# OIARV   =                   0. / OIWFS Heliocentric Radial Velocity             
# OIAWAVEL=                6500. / OIWFS Effective Target Wavelength              
# OIADEC  =            44.553775 / Declination of OIWFS guide star                
# OIAEPOCH=                2000. / Epoch for OIWFS guide star coordinates         
# OIAEQUIN=                2000. / Equinox for OIWFS guide star coordinates       
# OIAFRAME= 'FK5     '           / OIWFS Target co-ordinate system                
# OIAOBJEC= '673-010757'         / Object Name for OIWFS, Chop A                  
# OIAPMDEC=                0.003 / OIWFS Proper Motion in Declination             
# OIAPMRA =              0.01006 / OIWFS Proper Motion in RA                      
# OIAPARAL=                   0. / OIWFS Parallax of Target                       
# OIFREQ  =                 200. / OIWFS sampling frequency (Hz)                  
# HUMIDITY=                  11. / The Relative Humidity (fraction, 0..101).      
# TAMBIENT=                  4.1 / The ambient temp (C).                          
# TAMBIEN2=                39.38 / The ambient temp (F).                          
# PRESSURE=            464.42332 / The atmospheric pressure (mm Hg).              
# PRESSUR2=               61900. / The atmospheric pressure (Pa).                 
# DEWPOINT=                -24.3 / The dew point (C).                             
# DEWPOIN2=               -11.74 / The dew point (F).                             
# WINDSPEE=                  5.7 / The wind speed (m/s).                          
# WINDSPE2=              12.7509 / The wind speed (mph).                          
# WINDDIRE=                  18. / The wind direction (degrees).                  
# INPORT  =                    5 / Number of ISS port where GMOS was located      
# GMOSCC  = 'GMOS-N (V7-13)'     / GMOS components controller s/w                 
# TIME-OBS= '12:55:55.1'         / Time of observation                            
# PREIMAGE=                    F / MOS pre-imaging                                
# CONID   = 'ARC-III '           / Detector controller ID                         
# DETECTOR= 'GMOS-N + Hamamatsu' / Detector name                                  
# DEWAR   = 'Lab Cryostat'       / Dewar name                                     
# ARRYTMPD=             -102.697 / Array temperature D (Celsius)                  
# ARRYTMPA=               -96.06 / Array temperature A (Celsius)                  
# ARRYTMPB=              -95.677 / Array temperature B (Celsius)                  
# ARRYTMPC=              -94.901 / Array temperature C (Celsius)                  
# ARRYTSET=               -102.7 / Array temperature Setpoint (Celsius)           
# DETSIZE = '[1:6144,1:4224]'    / Detector size                                  
# NCCDS   =                    3 / Number of CCD chips                            
# NAMPS   =                    4 / Number of amplifiers                           
# SHUTTER = 'OPEN    '           / Shutter state during observation               
# AMPINTEG=                11880 / Amplifier integration time                     
# OBSEPOCH=     2020.73385035254 / Epoch at start of exposure                     
# TIMESYS = 'UTC     '           / Time system used                               
# DATE-OBS= '2020-09-25'         / UT Date of observation (YYYY-MM-DD)            
# GMOSTHT = 'WARNING '           / Shutter health                                 
# NSUBEXP =                    1 / Number of sub exposures                        
# UTSTART = '12:55:59.1667'      / UT at observation start                        
# UTEND   = '13:10:59.1667'      / UT at observation end                          
# EXPTIME =                 900. / Exposure time in seconds                       
# ELAPSED =                 900. / Elapsed observation time in seconds            
# DARKTIME=     921.083348035812 / Dark current integration in seconds            
# MASKID  =             10005354 / Mask/IFU barcode                               
# MASKNAME= '1.0arcsec'          / Mask name                                      
# MASKTYP =                    1 / Mask/IFU type (0=none/-1=IFU/1=mask)           
# MASKLOC =                    0 / Mask/IFU location (-1=unknown/0=FP/1=cassette) 
# FILTER1 = 'open1-6 '           / Filter 1 name                                  
# FILTID1 =             20000018 / Filter 1 barcode                               
# FILTER2 = 'open2-8 '           / Filter 2 name                                  
# FILTID2 =             20000008 / Filter 2 barcode                               
# GRATING = 'B600+_G5307'        / Grating name                                   
# GRATID  =             30000018 / Grating barcode                                
# GRWLEN  =                 520. / Grating wavelength at slit (nm)                
# CENTWAVE=                 520. / Central wavelength (nm)                        
# GRORDER =                    1 / Grating order                                  
# GRTILT  =              55.0885 / Grating tilt angle (degrees)                   
# GRSTEP  =            5887.9837 / Requested grating motor step position          
# DTAX    =                 83.6 / Detector translation X position (microns)      
# DTAY    =                91.52 / Detector translation Y position (microns)      
# DTAZ    =                1852. / Detector translation Z position (microns)      
# DTAZST  =                1852. / Focus at observation start (microns)           
# DTAZEN  =                1852. / Focus at observation end (microns)             
# DTAZME  =                2248. / Mean focus during observation (microns)        
# DTMODE  = 'FOLLOW-XY'          / Detector translation stage mode                
# ADCMODE = 'MOVE    '           / ADC mode                                       
# GMOSDC  = 'gmosdc-6.10'        / GMOS detector controller s/w                   
# DETTYPE = 'S10892-N'           / Detector array type                            
# DETID   = 'BI13-20-4k-1,BI12-09-4k-2,BI13-18-4k-2' / Chip IDs                   
# EXPOSURE=                 900. / Requested exposure time in seconds             
# ADCUSED =                    1 / ADC used? (0=yes/1=no)                         
# DETNROI =                    1 / No. regions of interest                        
# ADCENPST=                   0. / Start entrance prism angle of ADC              
# ADCENPEN=                   0. / End entrance prism angle of ADC                
# ADCENPME=                   0. / Mean entrance prism angle of ADC               
# ADCEXPST=                   0. / Start exit prism angle of ADC                  
# ADCEXPEN=                   0. / End exit prism angle of ADC                    
# ADCEXPME=                   0. / Mean exit prism angle of ADC                   
# ADCWLEN1=                   0. / Lower wavelength for ADC calculation           
# ADCWLEN2=                   0. / Upper wavelength for ADC calculation           
# DETRO1X =                    1 / ROI 1 X start                                  
# DETRO1XS=                 3072 / ROI 1 X size                                   
# DETRO1Y =                    1 / ROI 1 Y start                                  
# DETRO1YS=                 2112 / ROI 1 Y size                                   
# AIRMASS =                1.124 / Mean airmass for the observation               
# AMSTART =                1.118 / Airmass at start of exposure                   
# AMEND   =                1.131 / Airmass at end of exposure                     
# PROP_MD =                    F / Proprietary Metadata                           
# RELEASE = '2021-09-25'         / End of proprietary period YYY-MM-DD            
# NSCIEXT =                    1 / Number of science extensions                   
# PIXSCALE=               0.1614 / Pixel scale in Y in arcsec/pixel               
# NEXTEND =                    2 / Number of extensions                           
# OBSMODE = 'LONGSLIT'           / Observing mode (IMAGE|IFU|MOS|LONGSLIT)        
# GEM-TLM = '2020-09-25T16:45:34' / UT Last modification with GEMINI              
# GPREPARE= '2020-09-25T15:35:09' / UT Time stamp for GPREPARE                    
# TRIMMED = 'yes     '           / Overscan section trimmed                       
# GGAIN   = '2020-09-25T15:35:29' / UT Time stamp for GGAIN                       
# BIASIM  = 'zero    '           / Bias image used by GIREDUCE                    
# GIREDUCE= '2020-09-25T15:35:29' / UT Time stamp for GIREDUCE                    
# CTYPE1  = 'RA---TAN'           / R.A. in tangent plane projection               
# CTYPE2  = 'DEC--TAN'           / DEC. in tangent plane projection               
# CRPIX1  =        1568.29695485 / Ref pix of axis 1                              
# CRPIX2  =       1044.278254038 / Ref pix of axis 2                              
# CRVAL1  =     31.7056508784882 / RA at Ref pix in decimal degrees               
# CRVAL2  =     44.5874095403323 / DEC at Ref pix in decimal degrees              
# CD1_1   = 3.70471812053747E-05 / WCS matrix element 1 1                         
# CD1_2   = -2.54969001059281E-05 / WCS matrix element 1 2                        
# CD2_1   = 2.54917310008082E-05 / WCS matrix element 2 1                         
# CD2_2   = 3.70511358462041E-05 / WCS matrix element 2 2                         
# CCDSUM  = '2 2     '           / CCD sum                                        
# GAIN    =                  1.0 / Amplifier gain                                 
# GAINMULT=                 1.65 / Gain multiplication                            
# RDNOISE =                 3.98 / Readout noise                                  
# RADECSYS= 'FK5     '           / R.A./DEC. coordinate system reference          
# EQUINOX =                2000. / Equinox of coordinate system                   
# MJD-OBS =       59117.53963868 / MJD of start of obseration                     
# DISPAXIS=                    1 / Dispersion Axis                                
# GMOSAIC = '2020-09-25T15:35:30' / UT Time stamp for GMOSAIC                     
# GMSINTER= 'linear  '           / Interpolant used by GMOSAIC                    
# WMEF    = '2020-09-25T16:45:34' / UT Time stamp for WMEF                        
# GSFLATIM= 'flat1.fits'         / Flatfield Image used by gsreduce               
# GSREDUCE= '2020-09-25T15:35:31' / UT Time stamp for GSREDUCE                    
# GSTRANSF= '2020-09-25T15:39:26' / UT Time stamp for GSTRANSFORM                 
# GSEXTRAC= '2020-09-25T16:09:18' / UT Time stamp for GSEXTRACT                   
# GSCALIBR= '2020-09-25T16:45:34' / UT Time stamp for GSCALIBRATE                 
# END                                                                             
#
# SIMPLE  =                    T / Fits standard                                  
# BITPIX  =                   16 / Bits per pixel                                 
# NAXIS   =                    0 / Number of axes                                 
# EXTEND  =                    T / File may contain extensions                    
# ORIGIN  = 'NOAO-IRAF FITS Image Kernel July 2003' / FITS file originator        
# DATE    = '2020-09-25T15:35:49' / Date FITS file was generated                  
# IRAF-TLM= '2020-09-25T16:45:53' / Time of last modification                     
# COMMENT   FITS (Flexible Image Transport System) format is defined in 'Astronomy
# COMMENT   and Astrophysics', volume 376, page 359; bibcode: 2001A&A...376..359H 
# INSTRUME= 'GMOS-N  '           / Instrument used to acquire data                
# OBJECT  = 'ZTF20acdqjeq'       / Object Name                                    
# OBSTYPE = 'OBJECT  '           / Observation type                               
# OBSCLASS= 'science '           / Observe class                                  
# GEMPRGID= 'GN-2020B-Q-901'     / Gemini programme ID                            
# OBSID   = 'GN-2020B-Q-901-80'  / Observation ID / Data label                    
# DATALAB = 'GN-2020B-Q-901-80-005' / DHS data label                              
# OBSERVER= 'J. Chu  '           / Observer                                       
# OBSERVAT= 'Gemini-North'       / Name of telescope (Gemini-North|Gemini-South)  
# TELESCOP= 'Gemini-North'       / Gemini-North                                   
# PARALLAX=                   0. / Parallax of Target                             
# RADVEL  =                   0. / Heliocentric Radial Velocity                   
# EPOCH   =                2000. / Epoch for Target coordinates                   
# EQUINOX =                2000. / Equinox of coordinate system                   
# TRKEQUIN=                2000. / Tracking equinox                               
# SSA     = 'B. Cooper'          / SSA                                            
# RA      =          31.70558333 / Right Ascension                                
# DEC     =          44.58758333 / Declination of Target                          
# ELEVATIO=     61.9562819444444 / Current Elevation                              
# AZIMUTH =            -24.08835 / Current Azimuth                                
# CRPA    =    -1.58167375380944 / Current Cass Rotator Position Angle            
# HA      = '+01:02:46.59'       / Telescope hour angle                           
# LT      = '03:13:31.6'         / Local time at start of observation             
# TRKFRAME= 'FK5     '           / Tracking co-ordinate                           
# DECTRACK=                   0. / Differential tracking rate Dec                 
# TRKEPOCH=         59117.531909 / Differential tracking reference epoch          
# RATRACK =                   0. / Differential tracking rate RA                  
# FRAME   = 'FK5     '           / Target coordinate system                       
# PMDEC   =                   0. / Proper Motion in Declination                   
# PMRA    =                   0. / Proper Motion in RA                            
# WAVELENG=                5250. / Effective Target Wavelength                    
# RAWIQ   = '20-percentile'      / Raw Image Quality                              
# RAWCC   = '50-percentile'      / Raw Cloud Cover                                
# RAWWV   = 'UNKNOWN '           / Raw Water Vapour/Transparency                  
# RAWBG   = 'UNKNOWN '           / Raw Background                                 
# RAWPIREQ= 'YES     '                                                            
# RAWGEMQA= 'USABLE  '                                                            
# CGUIDMOD= 'Basic   '           / Carousel Mode                                  
# UT      = '13:13:32.1'         / UT at observation start                        
# M2BAFFLE= 'VISIBLE '           / Position of M2 baffle                          
# M2CENBAF= 'CLOSED  '           / Position of M2 central hole baffle             
# ST      = '03:10:54.8'         / Sidereal time at the start of the exposure     
# XOFFSET =    0.184204323152101 / Telescope offset in x in arcsec                
# YOFFSET =       15.61365267046 / Telescope offset in y in arcsec                
# POFFSET =    0.212000000622423 / Telescope offset in p in arcsec                
# QOFFSET =     15.6133000017987 / Telescope offset in q in arcsec                
# RAOFFSET=     8.67555474959033 / Telescope offset in RA in arcsec               
# DECOFFSE=    -12.9828668148946 / Telescope offset in DEC in arcsec              
# RATRGOFF=                   0. / Target offset in RA in arcsec                  
# DECTRGOF=                   0. / Target offset in DEC in arcsec                 
# PA      =               145.47 / Sky Position Angle at start of exposure        
# IAA     =              179.898 / Instrument Alignment Angle                     
# SFRT2   =              178.842 / Science fold rotation angle (degrees)          
# SFTILT  =                44.93 / Science fold tilt angle (degrees)              
# SFLINEAR=                  -2. / Science fold linear position (mm)              
# AOFOLD  = 'park-pos.'          / AO Pick-Off Mirror Position                    
# PWFS1_ST= 'parked  '           / PWFS1 probe state (frozen,guiding,parked)      
# PWFS2_ST= 'parked  '           / PWFS2 probe state (frozen,guiding,parked)      
# OIWFS_ST= 'guiding '           / OIWFS probe state (frozen,guiding,parked)      
# AOWFS_ST= 'parked  '           / AOWFS probe state (frozen,guiding,parked)      
# SCIBAND =                    1 / Science Ranking Band                           
# REQIQ   = 'Any     '           / Requested Image Quality                        
# REQCC   = '70-percentile'      / Requested Cloud Cover                          
# REQBG   = 'Any     '           / Requested Background                           
# REQWV   = 'Any     '           / Requested Water Vapour                         
# NUMREQTW=                    1 / Number of Requested Timing Window REQTW entries
# REQMINAM=                   1. / Requested Minimum Airmass                      
# REQMAXAM=                   2. / Requested Maximum Airmass                      
# REQTWS01= '2020-09-25T12:40:42' / Requested Timing Window 01 Start (UTC)        
# REQTWD01=               86400. / Requested Timing Window 01 Duration [seconds]  
# REQTWN01=                    0 / Requested Timing Window 01 Number of Repeats   
# REQTWP01=                   0. / Requested Timing Window 01 Repeat Period [secon
# OIARA   =              31.7773 / RA of OIWFS guide star                         
# OIARV   =                   0. / OIWFS Heliocentric Radial Velocity             
# OIAWAVEL=                6500. / OIWFS Effective Target Wavelength              
# OIADEC  =            44.553775 / Declination of OIWFS guide star                
# OIAEPOCH=                2000. / Epoch for OIWFS guide star coordinates         
# OIAEQUIN=                2000. / Equinox for OIWFS guide star coordinates       
# OIAFRAME= 'FK5     '           / OIWFS Target co-ordinate system                
# OIAOBJEC= '673-010757'         / Object Name for OIWFS, Chop A                  
# OIAPMDEC=                0.003 / OIWFS Proper Motion in Declination             
# OIAPMRA =              0.01006 / OIWFS Proper Motion in RA                      
# OIAPARAL=                   0. / OIWFS Parallax of Target                       
# OIFREQ  =                 200. / OIWFS sampling frequency (Hz)                  
# HUMIDITY=                  11. / The Relative Humidity (fraction, 0..101).      
# TAMBIENT=                   4. / The ambient temp (C).                          
# TAMBIEN2=                 39.2 / The ambient temp (F).                          
# PRESSURE=            463.67304 / The atmospheric pressure (mm Hg).              
# PRESSUR2=               61800. / The atmospheric pressure (Pa).                 
# DEWPOINT=                -24.4 / The dew point (C).                             
# DEWPOIN2=               -11.92 / The dew point (F).                             
# WINDSPEE=                  6.4 / The wind speed (m/s).                          
# WINDSPE2=              14.3168 / The wind speed (mph).                          
# WINDDIRE=                  23. / The wind direction (degrees).                  
# INPORT  =                    5 / Number of ISS port where GMOS was located      
# GMOSCC  = 'GMOS-N (V7-13)'     / GMOS components controller s/w                 
# TIME-OBS= '13:13:32.1'         / Time of observation                            
# PREIMAGE=                    F / MOS pre-imaging                                
# CONID   = 'ARC-III '           / Detector controller ID                         
# DETECTOR= 'GMOS-N + Hamamatsu' / Detector name                                  
# DEWAR   = 'Lab Cryostat'       / Dewar name                                     
# ARRYTMPD=             -102.686 / Array temperature D (Celsius)                  
# ARRYTMPA=              -96.196 / Array temperature A (Celsius)                  
# ARRYTMPB=              -95.818 / Array temperature B (Celsius)                  
# ARRYTMPC=              -95.036 / Array temperature C (Celsius)                  
# ARRYTSET=               -102.7 / Array temperature Setpoint (Celsius)           
# DETSIZE = '[1:6144,1:4224]'    / Detector size                                  
# NCCDS   =                    3 / Number of CCD chips                            
# NAMPS   =                    4 / Number of amplifiers                           
# SHUTTER = 'OPEN    '           / Shutter state during observation               
# AMPINTEG=                11880 / Amplifier integration time                     
# OBSEPOCH=     2020.73388385107 / Epoch at start of exposure                     
# TIMESYS = 'UTC     '           / Time system used                               
# DATE-OBS= '2020-09-25'         / UT Date of observation (YYYY-MM-DD)            
# GMOSTHT = 'WARNING '           / Shutter health                                 
# NSUBEXP =                    1 / Number of sub exposures                        
# UTSTART = '13:13:36.3000'      / UT at observation start                        
# UTEND   = '13:28:36.3000'      / UT at observation end                          
# EXPTIME =                 900. / Exposure time in seconds                       
# ELAPSED =                 900. / Elapsed observation time in seconds            
# DARKTIME=     921.083348035812 / Dark current integration in seconds            
# MASKID  =             10005354 / Mask/IFU barcode                               
# MASKNAME= '1.0arcsec'          / Mask name                                      
# MASKTYP =                    1 / Mask/IFU type (0=none/-1=IFU/1=mask)           
# MASKLOC =                    0 / Mask/IFU location (-1=unknown/0=FP/1=cassette) 
# FILTER1 = 'open1-6 '           / Filter 1 name                                  
# FILTID1 =             20000018 / Filter 1 barcode                               
# FILTER2 = 'open2-8 '           / Filter 2 name                                  
# FILTID2 =             20000008 / Filter 2 barcode                               
# GRATING = 'B600+_G5307'        / Grating name                                   
# GRATID  =             30000018 / Grating barcode                                
# GRWLEN  =                 525. / Grating wavelength at slit (nm)                
# CENTWAVE=                 525. / Central wavelength (nm)                        
# GRORDER =                    1 / Grating order                                  
# GRTILT  =              54.9922 / Grating tilt angle (degrees)                   
# GRSTEP  =            5877.4018 / Requested grating motor step position          
# DTAX    =                  84. / Detector translation X position (microns)      
# DTAY    =                92.32 / Detector translation Y position (microns)      
# DTAZ    =                1846. / Detector translation Z position (microns)      
# DTAZST  =                1846. / Focus at observation start (microns)           
# DTAZEN  =                1846. / Focus at observation end (microns)             
# DTAZME  =                2248. / Mean focus during observation (microns)        
# DTMODE  = 'FOLLOW-XY'          / Detector translation stage mode                
# ADCMODE = 'MOVE    '           / ADC mode                                       
# GMOSDC  = 'gmosdc-6.10'        / GMOS detector controller s/w                   
# DETTYPE = 'S10892-N'           / Detector array type                            
# DETID   = 'BI13-20-4k-1,BI12-09-4k-2,BI13-18-4k-2' / Chip IDs                   
# EXPOSURE=                 900. / Requested exposure time in seconds             
# ADCUSED =                    1 / ADC used? (0=yes/1=no)                         
# DETNROI =                    1 / No. regions of interest                        
# ADCENPST=                   0. / Start entrance prism angle of ADC              
# ADCENPEN=                   0. / End entrance prism angle of ADC                
# ADCENPME=                   0. / Mean entrance prism angle of ADC               
# ADCEXPST=                   0. / Start exit prism angle of ADC                  
# ADCEXPEN=                   0. / End exit prism angle of ADC                    
# ADCEXPME=                   0. / Mean exit prism angle of ADC                   
# ADCWLEN1=                   0. / Lower wavelength for ADC calculation           
# ADCWLEN2=                   0. / Upper wavelength for ADC calculation           
# DETRO1X =                    1 / ROI 1 X start                                  
# DETRO1XS=                 3072 / ROI 1 X size                                   
# DETRO1Y =                    1 / ROI 1 Y start                                  
# DETRO1YS=                 2112 / ROI 1 Y size                                   
# AIRMASS =                1.141 / Mean airmass for the observation               
# AMSTART =                1.133 / Airmass at start of exposure                   
# AMEND   =                1.151 / Airmass at end of exposure                     
# PROP_MD =                    F / Proprietary Metadata                           
# RELEASE = '2021-09-25'         / End of proprietary period YYY-MM-DD            
# NSCIEXT =                    1 / Number of science extensions                   
# PIXSCALE=               0.1614 / Pixel scale in Y in arcsec/pixel               
# NEXTEND =                    2 / Number of extensions                           
# OBSMODE = 'LONGSLIT'           / Observing mode (IMAGE|IFU|MOS|LONGSLIT)        
# GEM-TLM = '2020-09-25T16:45:25' / UT Last modification with GEMINI              
# GPREPARE= '2020-09-25T15:35:48' / UT Time stamp for GPREPARE                    
# TRIMMED = 'yes     '           / Overscan section trimmed                       
# GGAIN   = '2020-09-25T15:36:08' / UT Time stamp for GGAIN                       
# BIASIM  = 'zero    '           / Bias image used by GIREDUCE                    
# GIREDUCE= '2020-09-25T15:36:08' / UT Time stamp for GIREDUCE                    
# CTYPE1  = 'RA---TAN'           / R.A. in tangent plane projection               
# CTYPE2  = 'DEC--TAN'           / DEC. in tangent plane projection               
# CRPIX1  =        1568.29696794 / Ref pix of axis 1                              
# CRPIX2  =     1044.27823216656 / Ref pix of axis 2                              
# CRVAL1  =     31.7089681481926 / RA at Ref pix in decimal degrees               
# CRVAL2  =     44.5839759771937 / DEC at Ref pix in decimal degrees              
# CD1_1   = 3.70482784767037E-05 / WCS matrix element 1 1                         
# CD1_2   = -2.54958629837942E-05 / WCS matrix element 1 2                        
# CD2_1   = 2.54900187122582E-05 / WCS matrix element 2 1                         
# CD2_2   = 3.70522396986174E-05 / WCS matrix element 2 2                         
# CCDSUM  = '2 2     '           / CCD sum                                        
# GAIN    =                  1.0 / Amplifier gain                                 
# GAINMULT=                 1.65 / Gain multiplication                            
# RDNOISE =                 3.98 / Readout noise                                  
# RADECSYS= 'FK5     '           / R.A./DEC. coordinate system reference          
# EQUINOX =                2000. / Equinox of coordinate system                   
# MJD-OBS =     59117.5518735257 / MJD of start of obseration                     
# DISPAXIS=                    1 / Dispersion Axis                                
# GMOSAIC = '2020-09-25T15:36:09' / UT Time stamp for GMOSAIC                     
# GMSINTER= 'linear  '           / Interpolant used by GMOSAIC                    
# WMEF    = '2020-09-25T16:45:25' / UT Time stamp for WMEF                        
# GSFLATIM= 'flat2.fits'         / Flatfield Image used by gsreduce               
# GSREDUCE= '2020-09-25T15:36:10' / UT Time stamp for GSREDUCE                    
# GSTRANSF= '2020-09-25T15:39:39' / UT Time stamp for GSTRANSFORM                 
# GSEXTRAC= '2020-09-25T16:09:44' / UT Time stamp for GSEXTRACT                   
# GSCALIBR= '2020-09-25T16:45:25' / UT Time stamp for GSCALIBRATE                 
# END
#
3640.9988    2.5666e-16
3642.0137    2.0787e-16
3643.0287    2.3648e-16
3644.0437    2.2192e-16
3645.0586    1.5644e-16
3646.0736    1.5148e-16
3647.0885    1.8414e-16
3648.1035    1.7835e-16
3649.1185    2.1878e-16
3650.1334    1.8548e-16
3651.1484    1.7145e-16
3652.1633    1.9488e-16
3653.1783    2.1425e-16
3654.1933    1.6488e-16
3655.2082    1.3969e-16
3656.2232    1.3434e-16
3657.2382    1.9201e-16
3658.2531    2.2508e-16
3659.2681    1.7151e-16
3660.2830    1.5815e-16
3661.2980    2.2984e-16
3662.3130    2.4001e-16
3663.3279    2.0874e-16
3664.3429    2.1913e-16
3665.3579    1.8358e-16
3666.3728    1.7601e-16
3667.3878    2.1483e-16
3668.4027    1.8808e-16
3669.4177    2.3991e-16
3670.4327    2.2205e-16
3671.4476    2.0881e-16
3672.4626    2.3257e-16
3673.4776    2.3040e-16
3674.4925    2.1305e-16
3675.5075    1.9513e-16
3676.5224    2.2150e-16
3677.5374    1.8509e-16
3678.5524    1.4745e-16
3679.5673    1.6704e-16
3680.5823    1.7109e-16
3681.5972    1.8483e-16
3682.6122    1.9162e-16
3683.6272    1.9896e-16
3684.6421    2.1487e-16
3685.6571    1.8347e-16
3686.6721    1.8805e-16
3687.6870    2.2387e-16
3688.7020    1.9339e-16
3689.7169    1.7043e-16
3690.7319    1.7598e-16
3691.7469    1.4349e-16
3692.7618    1.3964e-16
3693.7768    1.8325e-16
3694.7918    2.0640e-16
3695.8067    2.1577e-16
3696.8217    2.1918e-16
3697.8366    2.1204e-16
3698.8516    2.1480e-16
3699.8666    2.0501e-16
3700.8815    1.5577e-16
3701.8965    1.5877e-16
3702.9115    2.0444e-16
3703.9264    1.9507e-16
3704.9414    1.6764e-16
3705.9563    1.5881e-16
3706.9713    1.8889e-16
3707.9863    1.8139e-16
3709.0012    1.7266e-16
3710.0162    1.8913e-16
3711.0311    2.0081e-16
3712.0461    1.7932e-16
3713.0611    1.5745e-16
3714.0760    1.6090e-16
3715.0910    1.7528e-16
3716.1060    1.6660e-16
3717.1209    1.9154e-16
3718.1359    2.2734e-16
3719.1508    2.2531e-16
3720.1658    1.9980e-16
3721.1808    1.9436e-16
3722.1957    1.8735e-16
3723.2107    1.7758e-16
3724.2257    1.7820e-16
3725.2406    1.9711e-16
3726.2556    2.1957e-16
3727.2705    2.2122e-16
3728.2855    1.9998e-16
3729.3005    2.2381e-16
3730.3154    1.6077e-16
3731.3304    1.5668e-16
3732.3453    1.5388e-16
3733.3603    1.7278e-16
3734.3753    1.5858e-16
3735.3902    1.6088e-16
3736.4052    1.9480e-16
3737.4202    1.7305e-16
3738.4351    1.5927e-16
3739.4501    1.4815e-16
3740.4650    1.2895e-16
3741.4800    1.7448e-16
3742.4950    1.7419e-16
3743.5099    1.7760e-16
3744.5249    1.7182e-16
3745.5399    1.4032e-16
3746.5548    1.3658e-16
3747.5698    1.5159e-16
3748.5847    1.6608e-16
3749.5997    1.4235e-16
3750.6147    1.4885e-16
3751.6296    1.5308e-16
3752.6446    1.4955e-16
3753.6595    1.8797e-16
3754.6745    2.1568e-16
3755.6895    1.9408e-16
3756.7044    1.7679e-16
3757.7194    1.6680e-16
3758.7344    1.7547e-16
3759.7493    2.0783e-16
3760.7643    2.2523e-16
3761.7792    1.9535e-16
3762.7942    2.0863e-16
3763.8092    1.7357e-16
3764.8241    1.6494e-16
3765.8391    1.6900e-16
3766.8541    1.6371e-16
3767.8690    1.8733e-16
3768.8840    1.8473e-16
3769.8989    1.8501e-16
3770.9139    1.5954e-16
3771.9289    1.2705e-16
3772.9438    1.4499e-16
3773.9588    1.6207e-16
3774.9738    1.8391e-16
3775.9887    1.8837e-16
3777.0037    1.9579e-16
3778.0186    1.8887e-16
3779.0336    1.8832e-16
3780.0486    1.8187e-16
3781.0635    1.6844e-16
3782.0785    1.6270e-16
3783.0934    1.4947e-16
3784.1084    1.5875e-16
3785.1234    1.5664e-16
3786.1383    1.5850e-16
3787.1533    1.5881e-16
3788.1683    1.5391e-16
3789.1832    1.6359e-16
3790.1982    1.6631e-16
3791.2131    1.8210e-16
3792.2281    1.8784e-16
3793.2431    1.6692e-16
3794.2580    1.6244e-16
3795.2730    1.7606e-16
3796.2880    1.8466e-16
3797.3029    1.6213e-16
3798.3179    1.5989e-16
3799.3328    1.7263e-16
3800.3478    1.6250e-16
3801.3628    1.7701e-16
3802.3777    1.9679e-16
3803.3927    2.2019e-16
3804.4077    1.7269e-16
3805.4226    1.4243e-16
3806.4376    1.9541e-16
3807.4525    1.9496e-16
3808.4675    1.4365e-16
3809.4825    1.5268e-16
3810.4974    1.5456e-16
3811.5124    1.4687e-16
3812.5273    1.6218e-16
3813.5423    1.7817e-16
3814.5573    1.7514e-16
3815.5722    1.8081e-16
3816.5872    1.5786e-16
3817.6022    1.6375e-16
3818.6171    1.8087e-16
3819.6321    1.9011e-16
3820.6470    1.8648e-16
3821.6620    1.7118e-16
3822.6770    1.7135e-16
3823.6919    1.8060e-16
3824.7069    1.8421e-16
3825.7219    1.8936e-16
3826.7368    1.6891e-16
3827.7518    1.7462e-16
3828.7667    1.7948e-16
3829.7817    1.7289e-16
3830.7967    1.7469e-16
3831.8116    1.8535e-16
3832.8266    2.0179e-16
3833.8415    2.0178e-16
3834.8565    1.7513e-16
3835.8715    1.9371e-16
3836.8864    1.8325e-16
3837.9014    1.6921e-16
3838.9164    1.6413e-16
3839.9313    1.7636e-16
3840.9463    1.7878e-16
3841.9612    1.8865e-16
3842.9762    2.0295e-16
3843.9912    1.8122e-16
3845.0061    2.0000e-16
3846.0211    1.8769e-16
3847.0361    1.6843e-16
3848.0510    1.7529e-16
3849.0660    1.8250e-16
3850.0809    1.9454e-16
3851.0959    1.8420e-16
3852.1109    1.7454e-16
3853.1258    1.8136e-16
3854.1408    1.7726e-16
3855.1557    1.6801e-16
3856.1707    1.6441e-16
3857.1857    1.6304e-16
3858.2006    1.6986e-16
3859.2156    1.8774e-16
3860.2306    1.9746e-16
3861.2455    1.7858e-16
3862.2605    1.6650e-16
3863.2754    1.7964e-16
3864.2904    1.8591e-16
3865.3054    1.7587e-16
3866.3203    1.7662e-16
3867.3353    1.8107e-16
3868.3503    1.6668e-16
3869.3652    1.6628e-16
3870.3802    1.5790e-16
3871.3951    1.5301e-16
3872.4101    1.6171e-16
3873.4251    1.6376e-16
3874.4400    1.6873e-16
3875.4550    1.5942e-16
3876.4700    1.6037e-16
3877.4849    1.5645e-16
3878.4999    1.5998e-16
3879.5148    1.4448e-16
3880.5298    1.2774e-16
3881.5448    1.5677e-16
3882.5597    1.7600e-16
3883.5747    1.8785e-16
3884.5896    1.7907e-16
3885.6046    1.7034e-16
3886.6196    1.6338e-16
3887.6345    1.6738e-16
3888.6495    1.7803e-16
3889.6645    1.7870e-16
3890.6794    1.8728e-16
3891.6944    1.8020e-16
3892.7093    1.8006e-16
3893.7243    1.8064e-16
3894.7393    1.7651e-16
3895.7542    1.7512e-16
3896.7692    1.7266e-16
3897.7842    1.7441e-16
3898.7991    1.7739e-16
3899.8141    1.7851e-16
3900.8290    1.7606e-16
3901.8440    1.7695e-16
3902.8590    1.7590e-16
3903.8739    1.7525e-16
3904.8889    1.8702e-16
3905.9038    1.8292e-16
3906.9188    1.8086e-16
3907.9338    1.8474e-16
3908.9487    1.8625e-16
3909.9637    1.8887e-16
3910.9787    1.6311e-16
3911.9936    1.5820e-16
3913.0086    1.6642e-16
3914.0235    1.7145e-16
3915.0385    1.6270e-16
3916.0535    1.5426e-16
3917.0684    1.6415e-16
3918.0834    1.4958e-16
3919.0984    1.5225e-16
3920.1133    1.5272e-16
3921.1283    1.4314e-16
3922.1432    1.5284e-16
3923.1582    1.5641e-16
3924.1732    1.5054e-16
3925.1881    1.4772e-16
3926.2031    1.4035e-16
3927.2181    1.4378e-16
3928.2330    1.4029e-16
3929.2480    1.4332e-16
3930.2629    1.3708e-16
3931.2779    1.3438e-16
3932.2929    1.4060e-16
3933.3078    1.4104e-16
3934.3228    1.4554e-16
3935.3377    1.5329e-16
3936.3527    1.5535e-16
3937.3677    1.6202e-16
3938.3826    1.6689e-16
3939.3976    1.6241e-16
3940.4126    1.5529e-16
3941.4275    1.5400e-16
3942.4425    1.6090e-16
3943.4574    1.6149e-16
3944.4724    1.5566e-16
3945.4874    1.4829e-16
3946.5023    1.4224e-16
3947.5173    1.4306e-16
3948.5323    1.4984e-16
3949.5472    1.4457e-16
3950.5622    1.4007e-16
3951.5771    1.5118e-16
3952.5921    1.5549e-16
3953.6071    1.4452e-16
3954.6220    1.4177e-16
3955.6370    1.4250e-16
3956.6519    1.4812e-16
3957.6669    1.5028e-16
3958.6819    1.5024e-16
3959.6968    1.3928e-16
3960.7118    1.4385e-16
3961.7268    1.4792e-16
3962.7417    1.4000e-16
3963.7567    1.4567e-16
3964.7716    1.4578e-16
3965.7866    1.4051e-16
3966.8016    1.4098e-16
3967.8165    1.4308e-16
3968.8315    1.5260e-16
3969.8465    1.4975e-16
3970.8614    1.3611e-16
3971.8764    1.4924e-16
3972.8913    1.6835e-16
3973.9063    1.6270e-16
3974.9213    1.5535e-16
3975.9362    1.6121e-16
3976.9512    1.6644e-16
3977.9662    1.8015e-16
3978.9811    1.8544e-16
3979.9961    1.7594e-16
3981.0110    1.7160e-16
3982.0260    1.7129e-16
3983.0410    1.6798e-16
3984.0559    1.6702e-16
3985.0709    1.7239e-16
3986.0858    1.7483e-16
3987.1008    1.8150e-16
3988.1158    1.7905e-16
3989.1307    1.6942e-16
3990.1457    1.6565e-16
3991.1607    1.7298e-16
3992.1756    1.7476e-16
3993.1906    1.7870e-16
3994.2055    1.7226e-16
3995.2205    1.6997e-16
3996.2355    1.7004e-16
3997.2504    1.6418e-16
3998.2654    1.6448e-16
3999.2804    1.6804e-16
4000.2953    1.6743e-16
4001.3103    1.6192e-16
4002.3252    1.6093e-16
4003.3402    1.4886e-16
4004.3552    1.5430e-16
4005.3701    1.5293e-16
4006.3851    1.5547e-16
4007.4000    1.6788e-16
4008.4150    1.7482e-16
4009.4300    1.6428e-16
4010.4449    1.4818e-16
4011.4599    1.5383e-16
4012.4749    1.6491e-16
4013.4898    1.7554e-16
4014.5048    1.7190e-16
4015.5197    1.6210e-16
4016.5347    1.6794e-16
4017.5497    1.7312e-16
4018.5646    1.6120e-16
4019.5796    1.5502e-16
4020.5946    1.5872e-16
4021.6095    1.5992e-16
4022.6245    1.5719e-16
4023.6394    1.5873e-16
4024.6544    1.6203e-16
4025.6694    1.7139e-16
4026.6843    1.7056e-16
4027.6993    1.6308e-16
4028.7143    1.5800e-16
4029.7292    1.5380e-16
4030.7442    1.5692e-16
4031.7591    1.5918e-16
4032.7741    1.5882e-16
4033.7891    1.6392e-16
4034.8040    1.6323e-16
4035.8190    1.6650e-16
4036.8339    1.5882e-16
4037.8489    1.5767e-16
4038.8639    1.6125e-16
4039.8788    1.5543e-16
4040.8938    1.6047e-16
4041.9088    1.6256e-16
4042.9237    1.6339e-16
4043.9387    1.6978e-16
4044.9536    1.6507e-16
4045.9686    1.5302e-16
4046.9836    1.6579e-16
4047.9985    1.7079e-16
4049.0135    1.6631e-16
4050.0285    1.6230e-16
4051.0434    1.6015e-16
4052.0584    1.6467e-16
4053.0733    1.6725e-16
4054.0883    1.5976e-16
4055.1033    1.6320e-16
4056.1182    1.5795e-16
4057.1332    1.5801e-16
4058.1481    1.6351e-16
4059.1631    1.6046e-16
4060.1781    1.5701e-16
4061.1930    1.5432e-16
4062.2080    1.4602e-16
4063.2230    1.4354e-16
4064.2379    1.4638e-16
4065.2529    1.4984e-16
4066.2678    1.5087e-16
4067.2828    1.5486e-16
4068.2978    1.6316e-16
4069.3127    1.6433e-16
4070.3277    1.6081e-16
4071.3427    1.5332e-16
4072.3576    1.5113e-16
4073.3726    1.5154e-16
4074.3875    1.4604e-16
4075.4025    1.4359e-16
4076.4175    1.4661e-16
4077.4324    1.4497e-16
4078.4474    1.4343e-16
4079.4624    1.4602e-16
4080.4773    1.5145e-16
4081.4923    1.4508e-16
4082.5072    1.4636e-16
4083.5222    1.4169e-16
4084.5372    1.3944e-16
4085.5521    1.4812e-16
4086.5671    1.4758e-16
4087.5820    1.4082e-16
4088.5970    1.3772e-16
4089.6120    1.4527e-16
4090.6269    1.4675e-16
4091.6419    1.3942e-16
4092.6569    1.4005e-16
4093.6718    1.4940e-16
4094.6868    1.6858e-16
4095.7017    1.6246e-16
4096.7167    1.4693e-16
4097.7317    1.5321e-16
4098.7466    1.6752e-16
4099.7616    1.6238e-16
4100.7766    1.6459e-16
4101.7915    1.6194e-16
4102.8065    1.6310e-16
4103.8214    1.6192e-16
4104.8364    1.6218e-16
4105.8514    1.6999e-16
4106.8663    1.7333e-16
4107.8813    1.6182e-16
4108.8962    1.5942e-16
4109.9112    1.5928e-16
4110.9262    1.4753e-16
4111.9411    1.4351e-16
4112.9561    1.5471e-16
4113.9711    1.6915e-16
4114.9860    1.8029e-16
4116.0010    1.7922e-16
4117.0159    1.7200e-16
4118.0309    1.7489e-16
4119.0459    1.7403e-16
4120.0608    1.6840e-16
4121.0758    1.6660e-16
4122.0908    1.6728e-16
4123.1057    1.7131e-16
4124.1207    1.8298e-16
4125.1356    1.7801e-16
4126.1506    1.6702e-16
4127.1656    1.6093e-16
4128.1805    1.5938e-16
4129.1955    1.6579e-16
4130.2105    1.7508e-16
4131.2254    1.7122e-16
4132.2404    1.6704e-16
4133.2553    1.6945e-16
4134.2703    1.7273e-16
4135.2853    1.6428e-16
4136.3002    1.6983e-16
4137.3152    1.7609e-16
4138.3301    1.7237e-16
4139.3451    1.7811e-16
4140.3601    1.7245e-16
4141.3750    1.6847e-16
4142.3900    1.7370e-16
4143.4050    1.6399e-16
4144.4199    1.6597e-16
4145.4349    1.7319e-16
4146.4498    1.7247e-16
4147.4648    1.6481e-16
4148.4798    1.6580e-16
4149.4947    1.7456e-16
4150.5097    1.7792e-16
4151.5247    1.7075e-16
4152.5396    1.6613e-16
4153.5546    1.6088e-16
4154.5695    1.6200e-16
4155.5845    1.6465e-16
4156.5995    1.6798e-16
4157.6144    1.6751e-16
4158.6294    1.6384e-16
4159.6443    1.6362e-16
4160.6593    1.6633e-16
4161.6743    1.6600e-16
4162.6892    1.6426e-16
4163.7042    1.6503e-16
4164.7192    1.6490e-16
4165.7341    1.6333e-16
4166.7491    1.6181e-16
4167.7640    1.6182e-16
4168.7790    1.7131e-16
4169.7940    1.8327e-16
4170.8089    1.8581e-16
4171.8239    1.8698e-16
4172.8389    1.8000e-16
4173.8538    1.6886e-16
4174.8688    1.7092e-16
4175.8837    1.8607e-16
4176.8987    1.7943e-16
4177.9137    1.6788e-16
4178.9286    1.6835e-16
4179.9436    1.6272e-16
4180.9586    1.6100e-16
4181.9735    1.6774e-16
4182.9885    1.7361e-16
4184.0034    1.7005e-16
4185.0184    1.6898e-16
4186.0334    1.7542e-16
4187.0483    1.7280e-16
4188.0633    1.6211e-16
4189.0782    1.5817e-16
4190.0932    1.5917e-16
4191.1082    1.6577e-16
4192.1231    1.6248e-16
4193.1381    1.6069e-16
4194.1531    1.6137e-16
4195.1680    1.6491e-16
4196.1830    1.5607e-16
4197.1979    1.6493e-16
4198.2129    1.6352e-16
4199.2279    1.5399e-16
4200.2428    1.5480e-16
4201.2578    1.5691e-16
4202.2728    1.6340e-16
4203.2877    1.7171e-16
4204.3027    1.7330e-16
4205.3176    1.6906e-16
4206.3326    1.6991e-16
4207.3476    1.7280e-16
4208.3625    1.6440e-16
4209.3775    1.5517e-16
4210.3924    1.5625e-16
4211.4074    1.5869e-16
4212.4224    1.5623e-16
4213.4373    1.5545e-16
4214.4523    1.5673e-16
4215.4673    1.6558e-16
4216.4822    1.6613e-16
4217.4972    1.6373e-16
4218.5121    1.6305e-16
4219.5271    1.6096e-16
4220.5421    1.5785e-16
4221.5570    1.6065e-16
4222.5720    1.6116e-16
4223.5870    1.5747e-16
4224.6019    1.5759e-16
4225.6169    1.6356e-16
4226.6318    1.6921e-16
4227.6468    1.6400e-16
4228.6618    1.5766e-16
4229.6767    1.5637e-16
4230.6917    1.6316e-16
4231.7067    1.6284e-16
4232.7216    1.6366e-16
4233.7366    1.5493e-16
4234.7515    1.5140e-16
4235.7665    1.6249e-16
4236.7815    1.6397e-16
4237.7964    1.6421e-16
4238.8114    1.5797e-16
4239.8263    1.5830e-16
4240.8413    1.6222e-16
4241.8563    1.5616e-16
4242.8712    1.5365e-16
4243.8862    1.6045e-16
4244.9012    1.6902e-16
4245.9161    1.6054e-16
4246.9311    1.5419e-16
4247.9460    1.5041e-16
4248.9610    1.5065e-16
4249.9760    1.6059e-16
4250.9909    1.5741e-16
4252.0059    1.5212e-16
4253.0209    1.4482e-16
4254.0358    1.3837e-16
4255.0508    1.4000e-16
4256.0657    1.4215e-16
4257.0807    1.4193e-16
4258.0957    1.4407e-16
4259.1106    1.4454e-16
4260.1256    1.4871e-16
4261.1406    1.5229e-16
4262.1555    1.4860e-16
4263.1705    1.3928e-16
4264.1854    1.4130e-16
4265.2004    1.4817e-16
4266.2154    1.4668e-16
4267.2303    1.3666e-16
4268.2453    1.3318e-16
4269.2602    1.3488e-16
4270.2752    1.3098e-16
4271.2902    1.2363e-16
4272.3051    1.2070e-16
4273.3201    1.2416e-16
4274.3351    1.3045e-16
4275.3500    1.3845e-16
4276.3650    1.4061e-16
4277.3799    1.3621e-16
4278.3949    1.3528e-16
4279.4099    1.3585e-16
4280.4248    1.3487e-16
4281.4398    1.3648e-16
4282.4548    1.3269e-16
4283.4697    1.2641e-16
4284.4847    1.2937e-16
4285.4996    1.2381e-16
4286.5146    1.1624e-16
4287.5296    1.2672e-16
4288.5445    1.3450e-16
4289.5595    1.3244e-16
4290.5744    1.3409e-16
4291.5894    1.3999e-16
4292.6044    1.3899e-16
4293.6193    1.3110e-16
4294.6343    1.2148e-16
4295.6493    1.1917e-16
4296.6642    1.1945e-16
4297.6792    1.1753e-16
4298.6941    1.1044e-16
4299.7091    1.1280e-16
4300.7241    1.1737e-16
4301.7390    1.2174e-16
4302.7540    1.2433e-16
4303.7690    1.2483e-16
4304.7839    1.1635e-16
4305.7989    1.1389e-16
4306.8138    1.1596e-16
4307.8288    1.1996e-16
4308.8438    1.2703e-16
4309.8587    1.2813e-16
4310.8737    1.1599e-16
4311.8886    1.0582e-16
4312.9036    1.1178e-16
4313.9186    1.2027e-16
4314.9335    1.1411e-16
4315.9485    1.0703e-16
4316.9635    1.0497e-16
4317.9784    1.0534e-16
4318.9934    1.0639e-16
4320.0083    1.0619e-16
4321.0233    1.1164e-16
4322.0383    1.1419e-16
4323.0532    1.1730e-16
4324.0682    1.1816e-16
4325.0832    1.1165e-16
4326.0981    1.0948e-16
4327.1131    1.1013e-16
4328.1280    1.0121e-16
4329.1430    9.9892e-17
4330.1580    1.0775e-16
4331.1729    1.0618e-16
4332.1879    1.0717e-16
4333.2029    1.1355e-16
4334.2178    1.1142e-16
4335.2328    1.0931e-16
4336.2477    1.1480e-16
4337.2627    1.1950e-16
4338.2777    1.2052e-16
4339.2926    1.2496e-16
4340.3076    1.2451e-16
4341.3225    1.2471e-16
4342.3375    1.3206e-16
4343.3525    1.3102e-16
4344.3674    1.3015e-16
4345.3824    1.2930e-16
4346.3974    1.3022e-16
4347.4123    1.3770e-16
4348.4273    1.3755e-16
4349.4422    1.4338e-16
4350.4572    1.4292e-16
4351.4722    1.3577e-16
4352.4871    1.3401e-16
4353.5021    1.3336e-16
4354.5171    1.2170e-16
4355.5320    1.2728e-16
4356.5470    1.3756e-16
4357.5619    1.4020e-16
4358.5769    1.3299e-16
4359.5919    1.2680e-16
4360.6068    1.2178e-16
4361.6218    1.1340e-16
4362.6367    1.1763e-16
4363.6517    1.3265e-16
4364.6667    1.2838e-16
4365.6816    1.1545e-16
4366.6966    1.1455e-16
4367.7116    1.2066e-16
4368.7265    1.1604e-16
4369.7415    1.1518e-16
4370.7564    1.1660e-16
4371.7714    1.1718e-16
4372.7864    1.2871e-16
4373.8013    1.2534e-16
4374.8163    1.2011e-16
4375.8313    1.1765e-16
4376.8462    1.2627e-16
4377.8612    1.3344e-16
4378.8761    1.3256e-16
4379.8911    1.2710e-16
4380.9061    1.3169e-16
4381.9210    1.3551e-16
4382.9360    1.3102e-16
4383.9510    1.2573e-16
4384.9659    1.2545e-16
4385.9809    1.3055e-16
4386.9958    1.3244e-16
4388.0108    1.3087e-16
4389.0258    1.3151e-16
4390.0407    1.3610e-16
4391.0557    1.3759e-16
4392.0706    1.3360e-16
4393.0856    1.2850e-16
4394.1006    1.2564e-16
4395.1155    1.2919e-16
4396.1305    1.3631e-16
4397.1455    1.3517e-16
4398.1604    1.3492e-16
4399.1754    1.3655e-16
4400.1903    1.3425e-16
4401.2053    1.3560e-16
4402.2203    1.3695e-16
4403.2352    1.3503e-16
4404.2502    1.3677e-16
4405.2652    1.3882e-16
4406.2801    1.3738e-16
4407.2951    1.3642e-16
4408.3100    1.3481e-16
4409.3250    1.3146e-16
4410.3400    1.3779e-16
4411.3549    1.4011e-16
4412.3699    1.3178e-16
4413.3848    1.3159e-16
4414.3998    1.3522e-16
4415.4148    1.3566e-16
4416.4297    1.3578e-16
4417.4447    1.4043e-16
4418.4597    1.4569e-16
4419.4746    1.4462e-16
4420.4896    1.3712e-16
4421.5045    1.3574e-16
4422.5195    1.4312e-16
4423.5345    1.4310e-16
4424.5494    1.3129e-16
4425.5644    1.3610e-16
4426.5794    1.4506e-16
4427.5943    1.4364e-16
4428.6093    1.4435e-16
4429.6242    1.4636e-16
4430.6392    1.3868e-16
4431.6542    1.3697e-16
4432.6691    1.4054e-16
4433.6841    1.3471e-16
4434.6991    1.4805e-16
4435.7140    1.5315e-16
4436.7290    1.4675e-16
4437.7439    1.4816e-16
4438.7589    1.4815e-16
4439.7739    1.4699e-16
4440.7888    1.4888e-16
4441.8038    1.4638e-16
4442.8187    1.4413e-16
4443.8337    1.5053e-16
4444.8487    1.4645e-16
4445.8636    1.4006e-16
4446.8786    1.4459e-16
4447.8936    1.4885e-16
4448.9085    1.4479e-16
4449.9235    1.3831e-16
4450.9384    1.3783e-16
4451.9534    1.4838e-16
4452.9684    1.6123e-16
4453.9833    1.6126e-16
4454.9983    1.5472e-16
4456.0133    1.5085e-16
4457.0282    1.5144e-16
4458.0432    1.5780e-16
4459.0581    1.6686e-16
4460.0731    1.6914e-16
4461.0881    1.6917e-16
4462.1030    1.6335e-16
4463.1180    1.5760e-16
4464.1330    1.5781e-16
4465.1479    1.5839e-16
4466.1629    1.5885e-16
4467.1778    1.6000e-16
4468.1928    1.5819e-16
4469.2078    1.5921e-16
4470.2227    1.6431e-16
4471.2377    1.6276e-16
4472.2526    1.5848e-16
4473.2676    1.6112e-16
4474.2826    1.6450e-16
4475.2975    1.6479e-16
4476.3125    1.6464e-16
4477.3275    1.6244e-16
4478.3424    1.5784e-16
4479.3574    1.5611e-16
4480.3723    1.4936e-16
4481.3873    1.4218e-16
4482.4023    1.4280e-16
4483.4172    1.4141e-16
4484.4322    1.4230e-16
4485.4472    1.4756e-16
4486.4621    1.5932e-16
4487.4771    1.6839e-16
4488.4920    1.6589e-16
4489.5070    1.6221e-16
4490.5220    1.5736e-16
4491.5369    1.5359e-16
4492.5519    1.4537e-16
4493.5668    1.4666e-16
4494.5818    1.5208e-16
4495.5968    1.4572e-16
4496.6117    1.3595e-16
4497.6267    1.3421e-16
4498.6417    1.3629e-16
4499.6566    1.4575e-16
4500.6716    1.4220e-16
4501.6865    1.4467e-16
4502.7015    1.5038e-16
4503.7165    1.4635e-16
4504.7314    1.4555e-16
4505.7464    1.3698e-16
4506.7614    1.3263e-16
4507.7763    1.4196e-16
4508.7913    1.4371e-16
4509.8062    1.4675e-16
4510.8212    1.4518e-16
4511.8362    1.4431e-16
4512.8511    1.5357e-16
4513.8661    1.5031e-16
4514.8810    1.4163e-16
4515.8960    1.4019e-16
4516.9110    1.3781e-16
4517.9259    1.4019e-16
4518.9409    1.5642e-16
4519.9559    1.6376e-16
4520.9708    1.5763e-16
4521.9858    1.5451e-16
4523.0007    1.5245e-16
4524.0157    1.4525e-16
4525.0307    1.4495e-16
4526.0456    1.5017e-16
4527.0606    1.5239e-16
4528.0756    1.5083e-16
4529.0905    1.4465e-16
4530.1055    1.4408e-16
4531.1204    1.5564e-16
4532.1354    1.6103e-16
4533.1504    1.5382e-16
4534.1653    1.4766e-16
4535.1803    1.4725e-16
4536.1953    1.5449e-16
4537.2102    1.5610e-16
4538.2252    1.5574e-16
4539.2401    1.5540e-16
4540.2551    1.4992e-16
4541.2701    1.4666e-16
4542.2850    1.5283e-16
4543.3000    1.6072e-16
4544.3149    1.5574e-16
4545.3299    1.4697e-16
4546.3449    1.4401e-16
4547.3598    1.4346e-16
4548.3748    1.4239e-16
4549.3898    1.4346e-16
4550.4047    1.4586e-16
4551.4197    1.4808e-16
4552.4346    1.4934e-16
4553.4496    1.4860e-16
4554.4646    1.5035e-16
4555.4795    1.5031e-16
4556.4945    1.4573e-16
4557.5095    1.4401e-16
4558.5244    1.4361e-16
4559.5394    1.4538e-16
4560.5543    1.5352e-16
4561.5693    1.5950e-16
4562.5843    1.5822e-16
4563.5992    1.5763e-16
4564.6142    1.5350e-16
4565.6291    1.4646e-16
4566.6441    1.4752e-16
4567.6591    1.5342e-16
4568.6740    1.5832e-16
4569.6890    1.5589e-16
4570.7040    1.4793e-16
4571.7189    1.4291e-16
4572.7339    1.4192e-16
4573.7488    1.3629e-16
4574.7638    1.3332e-16
4575.7788    1.4070e-16
4576.7937    1.4945e-16
4577.8087    1.5013e-16
4578.8237    1.4292e-16
4579.8386    1.3828e-16
4580.8536    1.4349e-16
4581.8685    1.4308e-16
4582.8835    1.4105e-16
4583.8985    1.4025e-16
4584.9134    1.3800e-16
4585.9284    1.2983e-16
4586.9434    1.2012e-16
4587.9583    1.2722e-16
4588.9733    1.4106e-16
4589.9882    1.4574e-16
4591.0032    1.4170e-16
4592.0182    1.3543e-16
4593.0331    1.3354e-16
4594.0481    1.3052e-16
4595.0630    1.3235e-16
4596.0780    1.2828e-16
4597.0930    1.2762e-16
4598.1079    1.3396e-16
4599.1229    1.4010e-16
4600.1379    1.3582e-16
4601.1528    1.3522e-16
4602.1678    1.3802e-16
4603.1827    1.3637e-16
4604.1977    1.3547e-16
4605.2127    1.3561e-16
4606.2276    1.3720e-16
4607.2426    1.3924e-16
4608.2576    1.3486e-16
4609.2725    1.2943e-16
4610.2875    1.2858e-16
4611.3024    1.3045e-16
4612.3174    1.3770e-16
4613.3324    1.4019e-16
4614.3473    1.3670e-16
4615.3623    1.3934e-16
4616.3772    1.4346e-16
4617.3922    1.4360e-16
4618.4072    1.4460e-16
4619.4221    1.4962e-16
4620.4371    1.4859e-16
4621.4521    1.4143e-16
4622.4670    1.4459e-16
4623.4820    1.4631e-16
4624.4969    1.4853e-16
4625.5119    1.4368e-16
4626.5269    1.4027e-16
4627.5418    1.5072e-16
4628.5568    1.5652e-16
4629.5718    1.5400e-16
4630.5867    1.4766e-16
4631.6017    1.3896e-16
4632.6166    1.3429e-16
4633.6316    1.3395e-16
4634.6466    1.3468e-16
4635.6615    1.3611e-16
4636.6765    1.3912e-16
4637.6915    1.4370e-16
4638.7064    1.4619e-16
4639.7214    1.4776e-16
4640.7363    1.4756e-16
4641.7513    1.4330e-16
4642.7663    1.4272e-16
4643.7812    1.4701e-16
4644.7962    1.4965e-16
4645.8111    1.4607e-16
4646.8261    1.4498e-16
4647.8411    1.4556e-16
4648.8560    1.4198e-16
4649.8710    1.3738e-16
4650.8860    1.3649e-16
4651.9009    1.3678e-16
4652.9159    1.3533e-16
4653.9308    1.3773e-16
4654.9458    1.4352e-16
4655.9608    1.4787e-16
4656.9757    1.4934e-16
4657.9907    1.4801e-16
4659.0057    1.4986e-16
4660.0206    1.5451e-16
4661.0356    1.5129e-16
4662.0505    1.4529e-16
4663.0655    1.4825e-16
4664.0805    1.5514e-16
4665.0954    1.5789e-16
4666.1104    1.5616e-16
4667.1254    1.5697e-16
4668.1403    1.6131e-16
4669.1553    1.5824e-16
4670.1702    1.4976e-16
4671.1852    1.5038e-16
4672.2002    1.5777e-16
4673.2151    1.6565e-16
4674.2301    1.6666e-16
4675.2450    1.6017e-16
4676.2600    1.5657e-16
4677.2750    1.5194e-16
4678.2899    1.5053e-16
4679.3049    1.5307e-16
4680.3199    1.5124e-16
4681.3348    1.5391e-16
4682.3498    1.5760e-16
4683.3647    1.5330e-16
4684.3797    1.4910e-16
4685.3947    1.5701e-16
4686.4096    1.5899e-16
4687.4246    1.5382e-16
4688.4396    1.6088e-16
4689.4545    1.6218e-16
4690.4695    1.5667e-16
4691.4844    1.5469e-16
4692.4994    1.5339e-16
4693.5144    1.5965e-16
4694.5293    1.6160e-16
4695.5443    1.5384e-16
4696.5592    1.4974e-16
4697.5742    1.5242e-16
4698.5892    1.5387e-16
4699.6041    1.5076e-16
4700.6191    1.5092e-16
4701.6341    1.5748e-16
4702.6490    1.5232e-16
4703.6640    1.5140e-16
4704.6789    1.5894e-16
4705.6939    1.6439e-16
4706.7089    1.7184e-16
4707.7238    1.8135e-16
4708.7388    1.8511e-16
4709.7538    1.8020e-16
4710.7687    1.3714e-16
4711.7837    1.4942e-16
4712.7986    1.5482e-16
4713.8136    1.3785e-16
4714.8286    1.5363e-16
4715.8435    1.4186e-16
4716.8585    1.4717e-16
4717.8735    1.3958e-16
4718.8884    1.4951e-16
4719.9034    1.3818e-16
4720.9183    1.4488e-16
4721.9333    1.4990e-16
4722.9483    1.4958e-16
4723.9632    1.5634e-16
4724.9782    1.4663e-16
4725.9931    1.5000e-16
4727.0081    1.5572e-16
4728.0231    1.5283e-16
4729.0380    1.6144e-16
4730.0530    1.5059e-16
4731.0680    1.4232e-16
4732.0829    1.4270e-16
4733.0979    1.3773e-16
4734.1128    1.4414e-16
4735.1278    1.5176e-16
4736.1428    1.4643e-16
4737.1577    1.3723e-16
4738.1727    1.3619e-16
4739.1877    1.4718e-16
4740.2026    1.4365e-16
4741.2176    1.4098e-16
4742.2325    1.4767e-16
4743.2475    1.4015e-16
4744.2625    1.4210e-16
4745.2774    1.4508e-16
4746.2924    1.3826e-16
4747.3073    1.3338e-16
4748.3223    1.3813e-16
4749.3373    1.3964e-16
4750.3522    1.4988e-16
4751.3672    1.4681e-16
4752.3822    1.3782e-16
4753.3971    1.3579e-16
4754.4121    1.3559e-16
4755.4270    1.3787e-16
4756.4420    1.3938e-16
4757.4570    1.2946e-16
4758.4719    1.2740e-16
4759.4869    1.3532e-16
4760.5019    1.3998e-16
4761.5168    1.3669e-16
4762.5318    1.2965e-16
4763.5467    1.3854e-16
4764.5617    1.4077e-16
4765.5767    1.3319e-16
4766.5916    1.3226e-16
4767.6066    1.3365e-16
4768.6215    1.3643e-16
4769.6365    1.4420e-16
4770.6515    1.4374e-16
4771.6664    1.4293e-16
4772.6814    1.4016e-16
4773.6964    1.3487e-16
4774.7113    1.2458e-16
4775.7263    1.2589e-16
4776.7412    1.4364e-16
4777.7562    1.4020e-16
4778.7712    1.3835e-16
4779.7861    1.4031e-16
4780.8011    1.3656e-16
4781.8161    1.3224e-16
4782.8310    1.3701e-16
4783.8460    1.3552e-16
4784.8609    1.3389e-16
4785.8759    1.3276e-16
4786.8909    1.3444e-16
4787.9058    1.3740e-16
4788.9208    1.3075e-16
4789.9358    1.2910e-16
4790.9507    1.3513e-16
4791.9657    1.3959e-16
4792.9806    1.3944e-16
4793.9956    1.3696e-16
4795.0106    1.4052e-16
4796.0255    1.3135e-16
4797.0405    1.3422e-16
4798.0554    1.2896e-16
4799.0704    1.2690e-16
4800.0854    1.3816e-16
4801.1003    1.3737e-16
4802.1153    1.3918e-16
4803.1303    1.4127e-16
4804.1452    1.3810e-16
4805.1602    1.2939e-16
4806.1751    1.2442e-16
4807.1901    1.3485e-16
4808.2051    1.2708e-16
4809.2200    1.2684e-16
4810.2350    1.1964e-16
4811.2500    1.2094e-16
4812.2649    1.1971e-16
4813.2799    1.3351e-16
4814.2948    1.2282e-16
4815.3098    1.2640e-16
4816.3248    1.1814e-16
4817.3397    1.1866e-16
4818.3547    1.3457e-16
4819.3696    1.2381e-16
4820.3846    1.2948e-16
4821.3996    1.3491e-16
4822.4145    1.2382e-16
4823.4295    1.3248e-16
4824.4445    1.3077e-16
4825.4594    1.2578e-16
4826.4744    1.2284e-16
4827.4893    1.1869e-16
4828.5043    1.3676e-16
4829.5193    1.2513e-16
4830.5342    1.2036e-16
4831.5492    1.3008e-16
4832.5642    1.2512e-16
4833.5791    1.2501e-16
4834.5941    1.3903e-16
4835.6090    1.3265e-16
4836.6240    1.2792e-16
4837.6390    1.1719e-16
4838.6539    1.2297e-16
4839.6689    1.2889e-16
4840.6839    1.2482e-16
4841.6988    1.1694e-16
4842.7138    1.1802e-16
4843.7287    1.2430e-16
4844.7437    1.0897e-16
4845.7587    1.1791e-16
4846.7736    1.0456e-16
4847.7886    1.1338e-16
4848.8035    1.2799e-16
4849.8185    1.2398e-16
4850.8335    1.1440e-16
4851.8484    1.2373e-16
4852.8634    1.1589e-16
4853.8784    1.1155e-16
4854.8933    1.2425e-16
4855.9083    1.1355e-16
4856.9232    1.2041e-16
4857.9382    1.0867e-16
4858.9532    1.2419e-16
4859.9681    1.1783e-16
4860.9831    1.2835e-16
4861.9981    1.1487e-16
4863.0130    1.2861e-16
4864.0280    1.2768e-16
4865.0429    1.2310e-16
4866.0579    1.2439e-16
4867.0729    1.2692e-16
4868.0878    1.2174e-16
4869.1028    1.2146e-16
4870.1177    1.1434e-16
4871.1327    1.3432e-16
4872.1477    1.2700e-16
4873.1626    1.4323e-16
4874.1776    1.3314e-16
4875.1926    1.2766e-16
4876.2075    1.2191e-16
4877.2225    1.2750e-16
4878.2374    1.1955e-16
4879.2524    1.2534e-16
4880.2674    1.2167e-16
4881.2823    1.1079e-16
4882.2973    1.2427e-16
4883.3123    1.1404e-16
4884.3272    1.0957e-16
4885.3422    1.1432e-16
4886.3571    1.1868e-16
4887.3721    1.1044e-16
4888.3871    1.1121e-16
4889.4020    1.2182e-16
4890.4170    1.1955e-16
4891.4320    1.1862e-16
4892.4469    1.2633e-16
4893.4619    1.1401e-16
4894.4768    1.1769e-16
4895.4918    1.2890e-16
4896.5068    1.2720e-16
4897.5217    1.2255e-16
4898.5367    1.1420e-16
4899.5516    1.2339e-16
4900.5666    1.2340e-16
4901.5816    1.1338e-16
4902.5965    1.1946e-16
4903.6115    1.2162e-16
4904.6265    1.1665e-16
4905.6414    1.2007e-16
4906.6564    1.1138e-16
4907.6713    1.0587e-16
4908.6863    1.2063e-16
4909.7013    1.1959e-16
4910.7162    1.1427e-16
4911.7312    1.0993e-16
4912.7462    1.1488e-16
4913.7611    1.1871e-16
4914.7761    1.1995e-16
4915.7910    1.1373e-16
4916.8060    1.1367e-16
4917.8210    1.1944e-16
4918.8359    1.2100e-16
4919.8509    1.2985e-16
4920.8659    1.2470e-16
4921.8808    1.1718e-16
4922.8958    1.2014e-16
4923.9107    1.2817e-16
4924.9257    1.1684e-16
4925.9407    1.1543e-16
4926.9556    1.2780e-16
4927.9706    1.2998e-16
4928.9855    1.2490e-16
4930.0005    1.2790e-16
4931.0155    1.2228e-16
4932.0304    1.2271e-16
4933.0454    1.2521e-16
4934.0604    1.1902e-16
4935.0753    1.3391e-16
4936.0903    1.2382e-16
4937.1052    1.2008e-16
4938.1202    1.2484e-16
4939.1352    1.1948e-16
4940.1501    1.0844e-16
4941.1651    1.1605e-16
4942.1801    1.1353e-16
4943.1950    1.1605e-16
4944.2100    1.1379e-16
4945.2249    1.1606e-16
4946.2399    1.2412e-16
4947.2549    1.2411e-16
4948.2698    1.2327e-16
4949.2848    1.2222e-16
4950.2997    1.1769e-16
4951.3147    1.1533e-16
4952.3297    1.1431e-16
4953.3446    1.1083e-16
4954.3596    1.1046e-16
4955.3746    1.1782e-16
4956.3895    1.1113e-16
4957.4045    1.1182e-16
4958.4194    1.1437e-16
4959.4344    1.1277e-16
4960.4494    1.0798e-16
4961.4643    1.1253e-16
4962.4793    1.1427e-16
4963.4943    1.2380e-16
4964.5092    1.2223e-16
4965.5242    1.1004e-16
4966.5391    1.0781e-16
4967.5541    1.0703e-16
4968.5691    1.0913e-16
4969.5840    1.0720e-16
4970.5990    1.0579e-16
4971.6139    1.0661e-16
4972.6289    1.0754e-16
4973.6439    1.1173e-16
4974.6588    1.1293e-16
4975.6738    1.1392e-16
4976.6888    1.1729e-16
4977.7037    1.0935e-16
4978.7187    1.0652e-16
4979.7336    1.1031e-16
4980.7486    1.0719e-16
4981.7636    1.0819e-16
4982.7785    1.0871e-16
4983.7935    1.0851e-16
4984.8085    1.0651e-16
4985.8234    1.0699e-16
4986.8384    1.0953e-16
4987.8533    1.0209e-16
4988.8683    1.0451e-16
4989.8833    1.0647e-16
4990.8982    1.0239e-16
4991.9132    9.6848e-17
4992.9282    9.4683e-17
4993.9431    1.0358e-16
4994.9581    1.0336e-16
4995.9730    9.9283e-17
4996.9880    1.0052e-16
4998.0030    1.0042e-16
4999.0179    1.0024e-16
5000.0329    1.0024e-16
5001.0478    1.0461e-16
5002.0628    1.0102e-16
5003.0778    9.8916e-17
5004.0927    9.6057e-17
5005.1077    9.1699e-17
5006.1227    1.0027e-16
5007.1376    9.7354e-17
5008.1526    9.6425e-17
5009.1675    9.7738e-17
5010.1825    9.1287e-17
5011.1975    8.9457e-17
5012.2124    9.1482e-17
5013.2274    9.2371e-17
5014.2424    9.2359e-17
5015.2573    9.7910e-17
5016.2723    9.8994e-17
5017.2872    9.2207e-17
5018.3022    9.3357e-17
5019.3172    9.7826e-17
5020.3321    9.4876e-17
5021.3471    9.6168e-17
5022.3620    9.4426e-17
5023.3770    9.0239e-17
5024.3920    9.3157e-17
5025.4069    9.6159e-17
5026.4219    9.9098e-17
5027.4369    1.0059e-16
5028.4518    9.7494e-17
5029.4668    9.1880e-17
5030.4817    9.1380e-17
5031.4967    9.1471e-17
5032.5117    8.7933e-17
5033.5266    9.0625e-17
5034.5416    8.8055e-17
5035.5566    8.9580e-17
5036.5715    9.3803e-17
5037.5865    9.0845e-17
5038.6014    9.1754e-17
5039.6164    9.5926e-17
5040.6314    9.3872e-17
5041.6463    8.8585e-17
5042.6613    8.9566e-17
5043.6763    8.9260e-17
5044.6912    8.7339e-17
5045.7062    8.5724e-17
5046.7211    8.9912e-17
5047.7361    9.3069e-17
5048.7511    8.7069e-17
5049.7660    8.1681e-17
5050.7810    8.3460e-17
5051.7959    8.8263e-17
5052.8109    9.0593e-17
5053.8259    8.9668e-17
5054.8408    8.3238e-17
5055.8558    8.2818e-17
5056.8708    8.4560e-17
5057.8857    8.9123e-17
5058.9007    8.5750e-17
5059.9156    8.2993e-17
5060.9306    8.8003e-17
5061.9456    8.8513e-17
5062.9605    8.8481e-17
5063.9755    8.6662e-17
5064.9905    8.8471e-17
5066.0054    8.1141e-17
5067.0204    8.0825e-17
5068.0353    8.6839e-17
5069.0503    8.9283e-17
5070.0653    9.2283e-17
5071.0802    8.1881e-17
5072.0952    8.1596e-17
5073.1101    8.2572e-17
5074.1251    9.0237e-17
5075.1401    8.5567e-17
5076.1550    8.0850e-17
5077.1700    8.7619e-17
5078.1850    8.1747e-17
5079.1999    8.1069e-17
5080.2149    7.8000e-17
5081.2298    7.4660e-17
5082.2448    8.4062e-17
5083.2598    8.4142e-17
5084.2747    8.1766e-17
5085.2897    8.4271e-17
5086.3047    8.1631e-17
5087.3196    7.9894e-17
5088.3346    8.4846e-17
5089.3495    8.1349e-17
5090.3645    8.2459e-17
5091.3795    8.5220e-17
5092.3944    9.0131e-17
5093.4094    8.9991e-17
5094.4244    8.5119e-17
5095.4393    8.8768e-17
5096.4543    8.6576e-17
5097.4692    8.6372e-17
5098.4842    8.5888e-17
5099.4992    8.3377e-17
5100.5141    8.5542e-17
5101.5291    8.7399e-17
5102.5440    9.1624e-17
5103.5590    9.2975e-17
5104.5740    9.0652e-17
5105.5889    8.7768e-17
5106.6039    8.6111e-17
5107.6189    8.6486e-17
5108.6338    9.1054e-17
5109.6488    9.2332e-17
5110.6637    8.4276e-17
5111.6787    8.5041e-17
5112.6937    8.7653e-17
5113.7086    8.3432e-17
5114.7236    8.8432e-17
5115.7386    9.0341e-17
5116.7535    8.2031e-17
5117.7685    7.6551e-17
5118.7834    8.4990e-17
5119.7984    8.6337e-17
5120.8134    8.6713e-17
5121.8283    8.7717e-17
5122.8433    8.6794e-17
5123.8582    8.2132e-17
5124.8732    8.6452e-17
5125.8882    8.6102e-17
5126.9031    8.0789e-17
5127.9181    8.5649e-17
5128.9331    8.3024e-17
5129.9480    8.1106e-17
5130.9630    8.2522e-17
5131.9779    8.0050e-17
5132.9929    8.0393e-17
5134.0079    8.1645e-17
5135.0228    8.6277e-17
5136.0378    8.3950e-17
5137.0528    8.6133e-17
5138.0677    8.8566e-17
5139.0827    8.4531e-17
5140.0976    8.7666e-17
5141.1126    8.8447e-17
5142.1276    8.5174e-17
5143.1425    8.4803e-17
5144.1575    8.0811e-17
5145.1725    8.0741e-17
5146.1874    8.5546e-17
5147.2024    8.4670e-17
5148.2173    8.5914e-17
5149.2323    8.6244e-17
5150.2473    8.6267e-17
5151.2622    8.4786e-17
5152.2772    9.0713e-17
5153.2921    8.7114e-17
5154.3071    8.5527e-17
5155.3221    8.7303e-17
5156.3370    8.8936e-17
5157.3520    8.3972e-17
5158.3670    8.2261e-17
5159.3819    8.5115e-17
5160.3969    8.9117e-17
5161.4118    8.5907e-17
5162.4268    8.4058e-17
5163.4418    8.3888e-17
5164.4567    8.3619e-17
5165.4717    8.2299e-17
5166.4867    8.2653e-17
5167.5016    8.3665e-17
5168.5166    8.5987e-17
5169.5315    8.4348e-17
5170.5465    8.5044e-17
5171.5615    8.7098e-17
5172.5764    8.3592e-17
5173.5914    8.2374e-17
5174.6064    8.8718e-17
5175.6213    9.0055e-17
5176.6363    8.9669e-17
5177.6512    9.3583e-17
5178.6662    9.3829e-17
5179.6812    8.9205e-17
5180.6961    9.1167e-17
5181.7111    8.6965e-17
5182.7260    8.5288e-17
5183.7410    8.7934e-17
5184.7560    9.0029e-17
5185.7709    8.9425e-17
5186.7859    9.1913e-17
5187.8009    9.1112e-17
5188.8158    9.0621e-17
5189.8308    9.0567e-17
5190.8457    8.4751e-17
5191.8607    8.5639e-17
5192.8757    9.2246e-17
5193.8906    8.9024e-17
5194.9056    8.7754e-17
5195.9206    8.4096e-17
5196.9355    8.5067e-17
5197.9505    8.6972e-17
5198.9654    8.6807e-17
5199.9804    8.7275e-17
5200.9954    8.9420e-17
5202.0103    8.6482e-17
5203.0253    8.3770e-17
5204.0402    8.6935e-17
5205.0552    8.9977e-17
5206.0702    8.7138e-17
5207.0851    8.4347e-17
5208.1001    8.7262e-17
5209.1151    8.5834e-17
5210.1300    8.5456e-17
5211.1450    8.3032e-17
5212.1599    8.3687e-17
5213.1749    8.4763e-17
5214.1899    8.6357e-17
5215.2048    8.8265e-17
5216.2198    8.8399e-17
5217.2348    8.7761e-17
5218.2497    8.9061e-17
5219.2647    8.9537e-17
5220.2796    8.6642e-17
5221.2946    8.6467e-17
5222.3096    8.9613e-17
5223.3245    8.7700e-17
5224.3395    8.5028e-17
5225.3544    8.4527e-17
5226.3694    8.3808e-17
5227.3844    8.4817e-17
5228.3993    8.5451e-17
5229.4143    8.8856e-17
5230.4293    8.6038e-17
5231.4442    7.9503e-17
5232.4592    8.2892e-17
5233.4741    8.6641e-17
5234.4891    8.4510e-17
5235.5041    8.2286e-17
5236.5190    8.5993e-17
5237.5340    8.8200e-17
5238.5490    8.4007e-17
5239.5639    8.4357e-17
5240.5789    9.0018e-17
5241.5938    9.2703e-17
5242.6088    9.0426e-17
5243.6238    9.0314e-17
5244.6387    9.0552e-17
5245.6537    9.0341e-17
5246.6687    9.1382e-17
5247.6836    9.0207e-17
5248.6986    8.6994e-17
5249.7135    8.9721e-17
5250.7285    8.8756e-17
5251.7435    8.5881e-17
5252.7584    8.8210e-17
5253.7734    8.3133e-17
5254.7883    8.1140e-17
5255.8033    8.4486e-17
5256.8183    8.6087e-17
5257.8332    8.9560e-17
5258.8482    8.8608e-17
5259.8632    8.5358e-17
5260.8781    8.4767e-17
5261.8931    8.3977e-17
5262.9080    8.5333e-17
5263.9230    8.7347e-17
5264.9380    8.6672e-17
5265.9529    8.5272e-17
5266.9679    8.6892e-17
5267.9829    8.6710e-17
5268.9978    8.7544e-17
5270.0128    9.0722e-17
5271.0277    9.1425e-17
5272.0427    8.6854e-17
5273.0577    8.7303e-17
5274.0726    8.6532e-17
5275.0876    8.5212e-17
5276.1025    8.5944e-17
5277.1175    8.6259e-17
5278.1325    8.6925e-17
5279.1474    8.3869e-17
5280.1624    8.0910e-17
5281.1774    8.2809e-17
5282.1923    8.8496e-17
5283.2073    9.1663e-17
5284.2222    9.0205e-17
5285.2372    8.6995e-17
5286.2522    8.4935e-17
5287.2671    8.4237e-17
5288.2821    8.8708e-17
5289.2971    8.9667e-17
5290.3120    8.9302e-17
5291.3270    8.9933e-17
5292.3419    8.8691e-17
5293.3569    8.7006e-17
5294.3719    8.6679e-17
5295.3868    8.9134e-17
5296.4018    9.1752e-17
5297.4168    8.5977e-17
5298.4317    8.6506e-17
5299.4467    8.7690e-17
5300.4616    8.5916e-17
5301.4766    8.7040e-17
5302.4916    8.8668e-17
5303.5065    8.6643e-17
5304.5215    8.6103e-17
5305.5364    8.8617e-17
5306.5514    8.7876e-17
5307.5664    8.5648e-17
5308.5813    8.4354e-17
5309.5963    8.8116e-17
5310.6113    8.7547e-17
5311.6262    8.4266e-17
5312.6412    8.2859e-17
5313.6561    8.8785e-17
5314.6711    8.7625e-17
5315.6861    8.8813e-17
5316.7010    8.7290e-17
5317.7160    8.8113e-17
5318.7310    8.5270e-17
5319.7459    8.5064e-17
5320.7609    8.2308e-17
5321.7758    8.5204e-17
5322.7908    8.4961e-17
5323.8058    8.6248e-17
5324.8207    9.0295e-17
5325.8357    8.9506e-17
5326.8507    8.7033e-17
5327.8656    8.5451e-17
5328.8806    8.8517e-17
5329.8955    8.7924e-17
5330.9105    8.1537e-17
5331.9255    8.7184e-17
5332.9404    8.8341e-17
5333.9554    8.9756e-17
5334.9703    8.4699e-17
5335.9853    8.1826e-17
5337.0003    8.4851e-17
5338.0152    8.4181e-17
5339.0302    8.5889e-17
5340.0452    8.3817e-17
5341.0601    8.5784e-17
5342.0751    8.7310e-17
5343.0900    8.9852e-17
5344.1050    8.9273e-17
5345.1200    8.4018e-17
5346.1349    8.0290e-17
5347.1499    8.3906e-17
5348.1649    8.9149e-17
5349.1798    9.0348e-17
5350.1948    8.4843e-17
5351.2097    8.3544e-17
5352.2247    7.9093e-17
5353.2397    7.8570e-17
5354.2546    8.2979e-17
5355.2696    8.1344e-17
5356.2845    8.6365e-17
5357.2995    8.3562e-17
5358.3145    8.4198e-17
5359.3294    8.1834e-17
5360.3444    8.2636e-17
5361.3594    8.0148e-17
5362.3743    8.1048e-17
5363.3893    8.6314e-17
5364.4042    8.1919e-17
5365.4192    7.6716e-17
5366.4342    7.4767e-17
5367.4491    7.9547e-17
5368.4641    8.4516e-17
5369.4791    7.8438e-17
5370.4940    7.9650e-17
5371.5090    8.2687e-17
5372.5239    8.6682e-17
5373.5389    8.3073e-17
5374.5539    8.7853e-17
5375.5688    7.8045e-17
5376.5838    8.1909e-17
5377.5988    7.7649e-17
5378.6137    8.3529e-17
5379.6287    8.9836e-17
5380.6436    8.7036e-17
5381.6586    8.3041e-17
5382.6736    7.7702e-17
5383.6885    8.2887e-17
5384.7035    7.9092e-17
5385.7184    8.3543e-17
5386.7334    8.1307e-17
5387.7484    8.4041e-17
5388.7633    7.9491e-17
5389.7783    7.7386e-17
5390.7933    8.0955e-17
5391.8082    8.5592e-17
5392.8232    8.2419e-17
5393.8381    8.1943e-17
5394.8531    7.9416e-17
5395.8681    7.7416e-17
5396.8830    7.9964e-17
5397.8980    7.6280e-17
5398.9130    7.8148e-17
5399.9279    8.2873e-17
5400.9429    7.8457e-17
5401.9578    7.8716e-17
5402.9728    7.7615e-17
5403.9878    7.8700e-17
5405.0027    8.4214e-17
5406.0177    7.4725e-17
5407.0326    7.7458e-17
5408.0476    8.3984e-17
5409.0626    8.0598e-17
5410.0775    7.7937e-17
5411.0925    7.5226e-17
5412.1075    8.2040e-17
5413.1224    7.6921e-17
5414.1374    7.8583e-17
5415.1523    8.0459e-17
5416.1673    7.8757e-17
5417.1823    8.5593e-17
5418.1972    8.0086e-17
5419.2122    7.6619e-17
5420.2272    7.8100e-17
5421.2421    7.6943e-17
5422.2571    7.7602e-17
5423.2720    7.6688e-17
5424.2870    8.0319e-17
5425.3020    8.1245e-17
5426.3169    8.1205e-17
5427.3319    7.4028e-17
5428.3468    7.6941e-17
5429.3618    7.3916e-17
5430.3768    7.9753e-17
5431.3917    7.7127e-17
5432.4067    7.5933e-17
5433.4217    7.6081e-17
5434.4366    7.9659e-17
5435.4516    7.7540e-17
5436.4665    7.7140e-17
5437.4815    7.7548e-17
5438.4965    7.8202e-17
5439.5114    7.8057e-17
5440.5264    7.8508e-17
5441.5414    7.9922e-17
5442.5563    7.5804e-17
5443.5713    7.6721e-17
5444.5862    7.4458e-17
5445.6012    7.3740e-17
5446.6162    7.7237e-17
5447.6311    7.3795e-17
5448.6461    7.2954e-17
5449.6611    7.3387e-17
5450.6760    7.3021e-17
5451.6910    7.4222e-17
5452.7059    7.3282e-17
5453.7209    7.2933e-17
5454.7359    7.6870e-17
5455.7508    7.6158e-17
5456.7658    7.5154e-17
5457.7807    7.4850e-17
5458.7957    7.5317e-17
5459.8107    7.4653e-17
5460.8256    7.5499e-17
5461.8406    7.5052e-17
5462.8556    7.5553e-17
5463.8705    7.5138e-17
5464.8855    7.4003e-17
5465.9004    7.5013e-17
5466.9154    7.6194e-17
5467.9304    7.1767e-17
5468.9453    7.1459e-17
5469.9603    7.5528e-17
5470.9753    7.8123e-17
5471.9902    7.7989e-17
5473.0052    7.6333e-17
5474.0201    7.3630e-17
5475.0351    7.4162e-17
5476.0501    7.4078e-17
5477.0650    7.3573e-17
5478.0800    7.4644e-17
5479.0949    7.4347e-17
5480.1099    7.5177e-17
5481.1249    7.7671e-17
5482.1398    7.7603e-17
5483.1548    7.5515e-17
5484.1698    7.4792e-17
5485.1847    7.4251e-17
5486.1997    7.3180e-17
5487.2146    7.3373e-17
5488.2296    7.0486e-17
5489.2446    6.6996e-17
5490.2595    7.0544e-17
5491.2745    7.2261e-17
5492.2895    7.0031e-17
5493.3044    6.9922e-17
5494.3194    6.9095e-17
5495.3343    7.2447e-17
5496.3493    7.6418e-17
5497.3643    7.3102e-17
5498.3792    6.9095e-17
5499.3942    7.1519e-17
5500.4092    7.2902e-17
5501.4241    7.1416e-17
5502.4391    7.0978e-17
5503.4540    7.3271e-17
5504.4690    7.0841e-17
5505.4840    7.0184e-17
5506.4989    7.2157e-17
5507.5139    7.0263e-17
5508.5288    7.3524e-17
5509.5438    7.6719e-17
5510.5588    7.4196e-17
5511.5737    7.1602e-17
5512.5887    6.9254e-17
5513.6037    6.8316e-17
5514.6186    7.0828e-17
5515.6336    7.1842e-17
5516.6485    6.9676e-17
5517.6635    7.1632e-17
5518.6785    7.2588e-17
5519.6934    7.5883e-17
5520.7084    7.1551e-17
5521.7234    7.5334e-17
5522.7383    7.3199e-17
5523.7533    7.0420e-17
5524.7682    7.4735e-17
5525.7832    8.0091e-17
5526.7982    7.4323e-17
5527.8131    7.4783e-17
5528.8281    7.3177e-17
5529.8430    7.1513e-17
5530.8580    7.5865e-17
5531.8730    7.6652e-17
5532.8879    7.5938e-17
5533.9029    7.7136e-17
5534.9179    7.9039e-17
5535.9328    7.7145e-17
5536.9478    7.3946e-17
5537.9627    7.4442e-17
5538.9777    7.2122e-17
5539.9927    7.4134e-17
5541.0076    7.2743e-17
5542.0226    7.3489e-17
5543.0376    7.4620e-17
5544.0525    7.6652e-17
5545.0675    7.5908e-17
5546.0824    7.9392e-17
5547.0974    7.3050e-17
5548.1124    7.1913e-17
5549.1273    7.6399e-17
5550.1423    7.4553e-17
5551.1573    7.3990e-17
5552.1722    7.6609e-17
5553.1872    7.1605e-17
5554.2021    6.9995e-17
5555.2171    7.6962e-17
5556.2321    7.7791e-17
5557.2470    6.7667e-17
5558.2620    7.2320e-17
5559.2769    7.5983e-17
5560.2919    7.3442e-17
5561.3069    7.5731e-17
5562.3218    7.2365e-17
5563.3368    7.3997e-17
5564.3518    7.5015e-17
5565.3667    7.2704e-17
5566.3817    7.4047e-17
5567.3966    7.6836e-17
5568.4116    7.5685e-17
5569.4266    7.4042e-17
5570.4415    8.0206e-17
5571.4565    8.1795e-17
5572.4715    7.2690e-17
5573.4864    7.2105e-17
5574.5014    6.7634e-17
5575.5163    8.7575e-17
5576.5313    8.2964e-17
5577.5463    8.7895e-17
5578.5612    8.5871e-17
5579.5762    1.1281e-16
5580.5912    6.7236e-17
5581.6061    7.3490e-17
5582.6211    7.1881e-17
5583.6360    7.8294e-17
5584.6510    7.6309e-17
5585.6660    7.9028e-17
5586.6809    7.8277e-17
5587.6959    7.6338e-17
5588.7108    7.3520e-17
5589.7258    7.8002e-17
5590.7408    7.7035e-17
5591.7557    7.7070e-17
5592.7707    7.5250e-17
5593.7857    7.5840e-17
5594.8006    7.5022e-17
5595.8156    7.6907e-17
5596.8305    7.4473e-17
5597.8455    7.6051e-17
5598.8605    7.8174e-17
5599.8754    7.5784e-17
5600.8904    7.7720e-17
5601.9054    8.2199e-17
5602.9203    7.9253e-17
5603.9353    7.8079e-17
5604.9502    7.6962e-17
5605.9652    7.3434e-17
5606.9802    7.5085e-17
5607.9951    7.4651e-17
5609.0101    7.4665e-17
5610.0250    7.6789e-17
5611.0400    7.5835e-17
5612.0550    7.7250e-17
5613.0699    7.7806e-17
5614.0849    7.8630e-17
5615.0999    7.8733e-17
5616.1148    7.8324e-17
5617.1298    7.8891e-17
5618.1447    7.8201e-17
5619.1597    7.7497e-17
5620.1747    7.5341e-17
5621.1896    7.7008e-17
5622.2046    7.7312e-17
5623.2196    8.1136e-17
5624.2345    7.9088e-17
5625.2495    7.5041e-17
5626.2644    7.6128e-17
5627.2794    7.6500e-17
5628.2944    7.8501e-17
5629.3093    7.8216e-17
5630.3243    7.6075e-17
5631.3392    7.5984e-17
5632.3542    7.6858e-17
5633.3692    7.8901e-17
5634.3841    7.7047e-17
5635.3991    7.5623e-17
5636.4141    7.8136e-17
5637.4290    7.8043e-17
5638.4440    7.6289e-17
5639.4589    7.5751e-17
5640.4739    7.6680e-17
5641.4889    7.8931e-17
5642.5038    7.9038e-17
5643.5188    7.9556e-17
5644.5338    7.9779e-17
5645.5487    7.7503e-17
5646.5637    7.7345e-17
5647.5786    7.8049e-17
5648.5936    7.8771e-17
5649.6086    7.6596e-17
5650.6235    7.6763e-17
5651.6385    7.6790e-17
5652.6535    7.4965e-17
5653.6684    7.3038e-17
5654.6834    7.4661e-17
5655.6983    7.5581e-17
5656.7133    7.6402e-17
5657.7283    7.6739e-17
5658.7432    7.4845e-17
5659.7582    7.7721e-17
5660.7731    7.9301e-17
5661.7881    7.7064e-17
5662.8031    7.3838e-17
5663.8180    7.4240e-17
5664.8330    7.5648e-17
5665.8480    8.0035e-17
5666.8629    7.7549e-17
5667.8779    7.3889e-17
5668.8928    7.8224e-17
5669.9078    7.8934e-17
5670.9228    7.4908e-17
5671.9377    7.4993e-17
5672.9527    7.6636e-17
5673.9677    7.5060e-17
5674.9826    7.7819e-17
5675.9976    7.4607e-17
5677.0125    7.7905e-17
5678.0275    7.4895e-17
5679.0425    7.5243e-17
5680.0574    7.4359e-17
5681.0724    7.1174e-17
5682.0873    6.9775e-17
5683.1023    7.2369e-17
5684.1173    7.5230e-17
5685.1322    7.0888e-17
5686.1472    7.3225e-17
5687.1622    7.7286e-17
5688.1771    7.8479e-17
5689.1921    7.5176e-17
5690.2070    7.0965e-17
5691.2220    7.0105e-17
5692.2370    7.2960e-17
5693.2519    7.5152e-17
5694.2669    7.2955e-17
5695.2819    6.9756e-17
5696.2968    7.5402e-17
5697.3118    7.5531e-17
5698.3267    7.7054e-17
5699.3417    7.6103e-17
5700.3567    7.5737e-17
5701.3716    7.3148e-17
5702.3866    7.4500e-17
5703.4016    7.4209e-17
5704.4165    7.4516e-17
5705.4315    7.5911e-17
5706.4464    7.5711e-17
5707.4614    7.5471e-17
5708.4764    7.8077e-17
5709.4913    7.3665e-17
5710.5063    7.4457e-17
5711.5212    7.4212e-17
5712.5362    7.6003e-17
5713.5512    7.4236e-17
5714.5661    7.5742e-17
5715.5811    7.5003e-17
5716.5961    7.3355e-17
5717.6110    7.3309e-17
5718.6260    7.5255e-17
5719.6409    7.5696e-17
5720.6559    7.6475e-17
5721.6709    7.6270e-17
5722.6858    7.9216e-17
5723.7008    7.6209e-17
5724.7158    7.9733e-17
5725.7307    8.1132e-17
5726.7457    7.9959e-17
5727.7606    8.2008e-17
5728.7756    8.2924e-17
5729.7906    8.3677e-17
5730.8055    7.6204e-17
5731.8205    7.8102e-17
5732.8354    7.8541e-17
5733.8504    7.9944e-17
5734.8654    8.0477e-17
5735.8803    8.0537e-17
5736.8953    7.9219e-17
5737.9103    7.7913e-17
5738.9252    7.7311e-17
5739.9402    7.6617e-17
5740.9551    7.3844e-17
5741.9701    7.1591e-17
5742.9851    7.2300e-17
5744.0000    7.2251e-17
5745.0150    7.3941e-17
5746.0300    7.3794e-17
5747.0449    7.4804e-17
5748.0599    7.3259e-17
5749.0748    7.3781e-17
5750.0898    7.5241e-17
5751.1048    7.3855e-17
5752.1197    7.6184e-17
5753.1347    7.6680e-17
5754.1497    7.3682e-17
5755.1646    7.3095e-17
5756.1796    7.2117e-17
5757.1945    7.3305e-17
5758.2095    7.3821e-17
5759.2245    7.4973e-17
5760.2394    7.5308e-17
5761.2544    7.8572e-17
5762.2693    7.7826e-17
5763.2843    7.6084e-17
5764.2993    7.5697e-17
5765.3142    7.5551e-17
5766.3292    7.4906e-17
5767.3442    7.4674e-17
5768.3591    7.3735e-17
5769.3741    7.5043e-17
5770.3890    7.6068e-17
5771.4040    7.7276e-17
5772.4190    7.5317e-17
5773.4339    7.4956e-17
5774.4489    7.3904e-17
5775.4639    7.5901e-17
5776.4788    7.7297e-17
5777.4938    7.8205e-17
5778.5087    8.0040e-17
5779.5237    7.8974e-17
5780.5387    8.1392e-17
5781.5536    7.9225e-17
5782.5686    8.1130e-17
5783.5835    8.5105e-17
5784.5985    7.8458e-17
5785.6135    7.7319e-17
5786.6284    7.2177e-17
5787.6434    7.3229e-17
5788.6584    7.9214e-17
5789.6733    7.3581e-17
5790.6883    7.4085e-17
5791.7032    7.4708e-17
5792.7182    7.6872e-17
5793.7332    7.7697e-17
5794.7481    7.4854e-17
5795.7631    7.4020e-17
5796.7781    7.1774e-17
5797.7930    7.1937e-17
5798.8080    7.6193e-17
5799.8229    7.3977e-17
5800.8379    6.9592e-17
5801.8529    7.3479e-17
5802.8678    7.0705e-17
5803.8828    7.2424e-17
5804.8978    7.4803e-17
5805.9127    7.3798e-17
5806.9277    6.9699e-17
5807.9426    7.0630e-17
5808.9576    7.0503e-17
5809.9726    7.3558e-17
5810.9875    7.8387e-17
5812.0025    7.8125e-17
5813.0174    7.6586e-17
5814.0324    7.5687e-17
5815.0474    7.4335e-17
5816.0623    7.0509e-17
5817.0773    7.2054e-17
5818.0923    7.5743e-17
5819.1072    7.2098e-17
5820.1222    9.1617e-17
5821.1371    8.5002e-17
5822.1521    7.4809e-17
5823.1671    7.4072e-17
5824.1820    7.5336e-17
5825.1970    7.3535e-17
5826.2120    7.4488e-17
5827.2269    7.4206e-17
5828.2419    7.2546e-17
5829.2568    7.1977e-17
5830.2718    7.3658e-17
5831.2868    7.4855e-17
5832.3017    7.4156e-17
5833.3167    7.2804e-17
5834.3317    7.2893e-17
5835.3466    7.1618e-17
5836.3616    7.2400e-17
5837.3765    7.3498e-17
5838.3915    7.3326e-17
5839.4065    7.2688e-17
5840.4214    7.0557e-17
5841.4364    7.0651e-17
5842.4513    7.0619e-17
5843.4663    7.0811e-17
5844.4813    7.0154e-17
5845.4962    7.1001e-17
5846.5112    7.1574e-17
5847.5262    7.1743e-17
5848.5411    7.2560e-17
5849.5561    7.0866e-17
5850.5710    7.1340e-17
5851.5860    7.2101e-17
5852.6010    7.3861e-17
5853.6159    7.1616e-17
5854.6309    7.1306e-17
5855.6459    7.2408e-17
5856.6608    7.2005e-17
5857.6758    7.1718e-17
5858.6907    7.0872e-17
5859.7057    7.0997e-17
5860.7207    6.9241e-17
5861.7356    7.1028e-17
5862.7506    7.0134e-17
5863.7655    6.8799e-17
5864.7805    6.6805e-17
5865.7955    6.9012e-17
5866.8104    7.1492e-17
5867.8254    6.9612e-17
5868.8404    7.0333e-17
5869.8553    6.9719e-17
5870.8703    6.8071e-17
5871.8852    6.9115e-17
5872.9002    6.7880e-17
5873.9152    7.1875e-17
5874.9301    6.9028e-17
5875.9451    6.8082e-17
5876.9601    6.8210e-17
5877.9750    6.9021e-17
5878.9900    7.0348e-17
5880.0049    6.7896e-17
5881.0199    6.7941e-17
5882.0349    6.8701e-17
5883.0498    7.0456e-17
5884.0648    6.9942e-17
5885.0797    6.9896e-17
5886.0947    6.9830e-17
5887.1097    6.6330e-17
5888.1246    7.0396e-17
5889.1396    6.6851e-17
5890.1546    6.8655e-17
5891.1695    7.0124e-17
5892.1845    7.0365e-17
5893.1994    6.3417e-17
5894.2144    6.7917e-17
5895.2294    6.4825e-17
5896.2443    6.3652e-17
5897.2593    6.5897e-17
5898.2743    7.2767e-17
5899.2892    7.2606e-17
5900.3042    7.2684e-17
5901.3191    7.0054e-17
5902.3341    7.1431e-17
5903.3491    7.1229e-17
5904.3640    7.2585e-17
5905.3790    7.1192e-17
5906.3940    6.7252e-17
5907.4089    6.9050e-17
5908.4239    6.9652e-17
5909.4388    6.9679e-17
5910.4538    6.8896e-17
5911.4688    6.7656e-17
5912.4837    6.7774e-17
5913.4987    6.8349e-17
5914.5136    6.8528e-17
5915.5286    6.9428e-17
5916.5436    6.8680e-17
5917.5585    6.8252e-17
5918.5735    6.8581e-17
5919.5885    6.6778e-17
5920.6034    6.6174e-17
5921.6184    6.6926e-17
5922.6333    6.8598e-17
5923.6483    6.9264e-17
5924.6633    6.7170e-17
5925.6782    6.8113e-17
5926.6932    7.0137e-17
5927.7082    6.9396e-17
5928.7231    6.9459e-17
5929.7381    7.0216e-17
5930.7530    6.9265e-17
5931.7680    6.8518e-17
5932.7830    6.8324e-17
5933.7979    6.8184e-17
5934.8129    6.7717e-17
5935.8278    6.7412e-17
5936.8428    6.8800e-17
5937.8578    6.8445e-17
5938.8727    6.7426e-17
5939.8877    6.7066e-17
5940.9027    6.6866e-17
5941.9176    6.8485e-17
5942.9326    6.6698e-17
5943.9475    6.7410e-17
5944.9625    7.0691e-17
5945.9775    6.7819e-17
5946.9924    6.9773e-17
5948.0074    7.1539e-17
5949.0224    6.9693e-17
5950.0373    6.7131e-17
5951.0523    6.8229e-17
5952.0672    7.0758e-17
5953.0822    7.0486e-17
5954.0972    7.0093e-17
5955.1121    6.8557e-17
5956.1271    6.9534e-17
5957.1421    6.7266e-17
5958.1570    6.5496e-17
5959.1720    6.8971e-17
5960.1869    6.9052e-17
5961.2019    6.7274e-17
5962.2169    7.1240e-17
5963.2318    6.7333e-17
5964.2468    6.8737e-17
5965.2617    6.7218e-17
5966.2767    6.9507e-17
5967.2917    6.7383e-17
5968.3066    6.8748e-17
5969.3216    6.8581e-17
5970.3366    6.7351e-17
5971.3515    6.8287e-17
5972.3665    6.5404e-17
5973.3814    6.7104e-17
5974.3964    6.8751e-17
5975.4114    7.0209e-17
5976.4263    7.0049e-17
5977.4413    6.7511e-17
5978.4563    6.8318e-17
5979.4712    6.8388e-17
5980.4862    7.0050e-17
5981.5011    6.9302e-17
5982.5161    7.0295e-17
5983.5311    6.9399e-17
5984.5460    6.9502e-17
5985.5610    7.1480e-17
5986.5760    7.0705e-17
5987.5909    7.0225e-17
5988.6059    7.1607e-17
5989.6208    7.0968e-17
5990.6358    7.0237e-17
5991.6508    7.0537e-17
5992.6657    6.9589e-17
5993.6807    6.7020e-17
5994.6956    6.7146e-17
5995.7106    6.8023e-17
5996.7256    6.7744e-17
5997.7405    6.8031e-17
5998.7555    6.8514e-17
5999.7705    7.0080e-17
6000.7854    7.0117e-17
6001.8004    6.8342e-17
6002.8153    6.9424e-17
6003.8303    7.0236e-17
6004.8453    6.9862e-17
6005.8602    6.9052e-17
6006.8752    6.9203e-17
6007.8902    7.0588e-17
6008.9051    7.0224e-17
6009.9201    7.0251e-17
6010.9350    7.0456e-17
6011.9500    6.9780e-17
6012.9650    6.8038e-17
6013.9799    6.8204e-17
6014.9949    7.0663e-17
6016.0098    7.2206e-17
6017.0248    7.0455e-17
6018.0398    6.9734e-17
6019.0547    7.0543e-17
6020.0697    7.2119e-17
6021.0847    7.2549e-17
6022.0996    7.2779e-17
6023.1146    7.2274e-17
6024.1295    7.2896e-17
6025.1445    7.3283e-17
6026.1595    7.1993e-17
6027.1744    7.1855e-17
6028.1894    7.1670e-17
6029.2044    7.2175e-17
6030.2193    7.0865e-17
6031.2343    6.7207e-17
6032.2492    7.1732e-17
6033.2642    7.0547e-17
6034.2792    7.4696e-17
6035.2941    7.3610e-17
6036.3091    7.4084e-17
6037.3240    7.1909e-17
6038.3390    7.0887e-17
6039.3540    7.1061e-17
6040.3689    7.2272e-17
6041.3839    7.3286e-17
6042.3989    7.4070e-17
6043.4138    7.2963e-17
6044.4288    7.2024e-17
6045.4437    7.4289e-17
6046.4587    7.3164e-17
6047.4737    7.2897e-17
6048.4886    7.3340e-17
6049.5036    7.3765e-17
6050.5186    7.1472e-17
6051.5335    7.2355e-17
6052.5485    7.1850e-17
6053.5634    7.1810e-17
6054.5784    7.1364e-17
6055.5934    7.0622e-17
6056.6083    7.1378e-17
6057.6233    7.3702e-17
6058.6383    7.4992e-17
6059.6532    7.2638e-17
6060.6682    7.1635e-17
6061.6831    7.1472e-17
6062.6981    7.1501e-17
6063.7131    7.2080e-17
6064.7280    7.1015e-17
6065.7430    7.1048e-17
6066.7579    7.1548e-17
6067.7729    7.0766e-17
6068.7879    7.1621e-17
6069.8028    7.1770e-17
6070.8178    7.0963e-17
6071.8328    7.1215e-17
6072.8477    7.1879e-17
6073.8627    7.1095e-17
6074.8776    7.0069e-17
6075.8926    6.9868e-17
6076.9076    7.0733e-17
6077.9225    7.1371e-17
6078.9375    7.1642e-17
6079.9525    7.3457e-17
6080.9674    7.1773e-17
6081.9824    7.1264e-17
6082.9973    6.9920e-17
6084.0123    7.1899e-17
6085.0273    7.1102e-17
6086.0422    7.0824e-17
6087.0572    7.1352e-17
6088.0721    7.0962e-17
6089.0871    7.1154e-17
6090.1021    7.1565e-17
6091.1170    7.0276e-17
6092.1320    6.9790e-17
6093.1470    7.0595e-17
6094.1619    7.0984e-17
6095.1769    6.9261e-17
6096.1918    6.9599e-17
6097.2068    6.8761e-17
6098.2218    6.8391e-17
6099.2367    6.8240e-17
6100.2517    7.0198e-17
6101.2667    6.9231e-17
6102.2816    7.0447e-17
6103.2966    6.9120e-17
6104.3115    6.8970e-17
6105.3265    6.9638e-17
6106.3415    7.3823e-17
6107.3564    7.0061e-17
6108.3714    7.1956e-17
6109.3864    7.2560e-17
6110.4013    7.2312e-17
6111.4163    7.1342e-17
6112.4312    6.9890e-17
6113.4462    7.1583e-17
6114.4612    7.2575e-17
6115.4761    7.3057e-17
6116.4911    7.1306e-17
6117.5060    7.1876e-17
6118.5210    7.1903e-17
6119.5360    7.1528e-17
6120.5509    7.0962e-17
6121.5659    7.0327e-17
6122.5809    6.9451e-17
6123.5958    7.1563e-17
6124.6108    7.1246e-17
6125.6257    7.1652e-17
6126.6407    7.0817e-17
6127.6557    6.9697e-17
6128.6706    7.1181e-17
6129.6856    7.2308e-17
6130.7006    7.1830e-17
6131.7155    7.1143e-17
6132.7305    7.0051e-17
6133.7454    6.9086e-17
6134.7604    6.9572e-17
6135.7754    7.0200e-17
6136.7903    7.0919e-17
6137.8053    7.1754e-17
6138.8202    7.2204e-17
6139.8352    7.0958e-17
6140.8502    6.9842e-17
6141.8651    7.1020e-17
6142.8801    7.0444e-17
6143.8951    7.0036e-17
6144.9100    7.1282e-17
6145.9250    7.1663e-17
6146.9399    7.2604e-17
6147.9549    7.1697e-17
6148.9699    7.0442e-17
6149.9848    7.0324e-17
6150.9998    7.1127e-17
6152.0148    7.0096e-17
6153.0297    7.0092e-17
6154.0447    6.9778e-17
6155.0596    6.8056e-17
6156.0746    6.9222e-17
6157.0896    6.7878e-17
6158.1045    6.8198e-17
6159.1195    7.0428e-17
6160.1345    6.9399e-17
6161.1494    6.9471e-17
6162.1644    6.9203e-17
6163.1793    7.0680e-17
6164.1943    6.7509e-17
6165.2093    6.9564e-17
6166.2242    6.8199e-17
6167.2392    6.7710e-17
6168.2541    7.0513e-17
6169.2691    6.9740e-17
6170.2841    6.9128e-17
6171.2990    7.2141e-17
6172.3140    7.0496e-17
6173.3290    6.8863e-17
6174.3439    7.1297e-17
6175.3589    6.9671e-17
6176.3738    6.7633e-17
6177.3888    6.8071e-17
6178.4038    7.0077e-17
6179.4187    6.9626e-17
6180.4337    6.9596e-17
6181.4487    6.9843e-17
6182.4636    7.0290e-17
6183.4786    7.0701e-17
6184.4935    6.8960e-17
6185.5085    7.0027e-17
6186.5235    7.0797e-17
6187.5384    7.0213e-17
6188.5534    6.8533e-17
6189.5683    6.8193e-17
6190.5833    6.8654e-17
6191.5983    6.9183e-17
6192.6132    6.8608e-17
6193.6282    6.8621e-17
6194.6432    6.8895e-17
6195.6581    6.9598e-17
6196.6731    6.8369e-17
6197.6880    6.9078e-17
6198.7030    6.9250e-17
6199.7180    6.9120e-17
6200.7329    7.0146e-17
6201.7479    7.0188e-17
6202.7629    6.9624e-17
6203.7778    6.8135e-17
6204.7928    6.7695e-17
6205.8077    6.8330e-17
6206.8227    6.8676e-17
6207.8377    6.9456e-17
6208.8526    6.9232e-17
6209.8676    6.9284e-17
6210.8826    6.9708e-17
6211.8975    6.9806e-17
6212.9125    6.9504e-17
6213.9274    6.8888e-17
6214.9424    6.8325e-17
6215.9574    6.9795e-17
6216.9723    6.8513e-17
6217.9873    6.7716e-17
6219.0022    6.7959e-17
6220.0172    6.7100e-17
6221.0322    6.7909e-17
6222.0471    6.7167e-17
6223.0621    6.7102e-17
6224.0771    6.7857e-17
6225.0920    6.8121e-17
6226.1070    6.8066e-17
6227.1219    6.7994e-17
6228.1369    6.6950e-17
6229.1519    6.6147e-17
6230.1668    6.6336e-17
6231.1818    6.4696e-17
6232.1968    6.5400e-17
6233.2117    6.4602e-17
6234.2267    6.7040e-17
6235.2416    6.7041e-17
6236.2566    6.4957e-17
6237.2716    6.9015e-17
6238.2865    6.7307e-17
6239.3015    6.5406e-17
6240.3165    6.5841e-17
6241.3314    6.4966e-17
6242.3464    6.5816e-17
6243.3613    6.3748e-17
6244.3763    6.4077e-17
6245.3913    6.4675e-17
6246.4062    6.4342e-17
6247.4212    6.6262e-17
6248.4361    6.6846e-17
6249.4511    6.5852e-17
6250.4661    6.3701e-17
6251.4810    6.5093e-17
6252.4960    6.5644e-17
6253.5110    6.4512e-17
6254.5259    6.2290e-17
6255.5409    6.3401e-17
6256.5558    6.3709e-17
6257.5708    6.4606e-17
6258.5858    6.4960e-17
6259.6007    6.5414e-17
6260.6157    6.5608e-17
6261.6307    6.6079e-17
6262.6456    6.4721e-17
6263.6606    6.4082e-17
6264.6755    6.3692e-17
6265.6905    6.4376e-17
6266.7055    6.5939e-17
6267.7204    6.4799e-17
6268.7354    6.4153e-17
6269.7503    6.4790e-17
6270.7653    6.4281e-17
6271.7803    6.2992e-17
6272.7952    6.3599e-17
6273.8102    6.4086e-17
6274.8252    6.3810e-17
6275.8401    6.2960e-17
6276.8551    6.2203e-17
6277.8700    6.1411e-17
6278.8850    6.0147e-17
6279.9000    6.0583e-17
6280.9149    6.0735e-17
6281.9299    6.2126e-17
6282.9449    6.1431e-17
6283.9598    6.2175e-17
6284.9748    6.2076e-17
6285.9897    6.3250e-17
6287.0047    6.1708e-17
6288.0197    6.1848e-17
6289.0346    6.2552e-17
6290.0496    6.4073e-17
6291.0645    6.3355e-17
6292.0795    6.3225e-17
6293.0945    6.4987e-17
6294.1094    6.3788e-17
6295.1244    6.1021e-17
6296.1394    6.2678e-17
6297.1543    5.8528e-17
6298.1693    6.2809e-17
6299.1842    6.4906e-17
6300.1992    6.7749e-17
6301.2142    6.4132e-17
6302.2291    6.8116e-17
6303.2441    6.7153e-17
6304.2591    6.4959e-17
6305.2740    6.4528e-17
6306.2890    6.4628e-17
6307.3039    6.5612e-17
6308.3189    6.4734e-17
6309.3339    6.4956e-17
6310.3488    6.3591e-17
6311.3638    6.2181e-17
6312.3788    6.1968e-17
6313.3937    6.3005e-17
6314.4087    6.3940e-17
6315.4236    6.3079e-17
6316.4386    6.3044e-17
6317.4536    6.3187e-17
6318.4685    6.2665e-17
6319.4835    6.3001e-17
6320.4984    6.7381e-17
6321.5134    6.3866e-17
6322.5284    6.3720e-17
6323.5433    6.4300e-17
6324.5583    6.1904e-17
6325.5733    6.3694e-17
6326.5882    6.4680e-17
6327.6032    6.1848e-17
6328.6181    6.0256e-17
6329.6331    6.0026e-17
6330.6481    6.0387e-17
6331.6630    6.2282e-17
6332.6780    6.1808e-17
6333.6930    6.1514e-17
6334.7079    6.1836e-17
6335.7229    6.1430e-17
6336.7378    6.2194e-17
6337.7528    6.3187e-17
6338.7678    6.3264e-17
6339.7827    6.3465e-17
6340.7977    6.1225e-17
6341.8126    6.1394e-17
6342.8276    6.1218e-17
6343.8426    6.1858e-17
6344.8575    6.2987e-17
6345.8725    6.2904e-17
6346.8875    6.3417e-17
6347.9024    6.1860e-17
6348.9174    6.1982e-17
6349.9323    6.3211e-17
6350.9473    6.3450e-17
6351.9623    6.3319e-17
6352.9772    6.1452e-17
6353.9922    6.4710e-17
6355.0072    6.3847e-17
6356.0221    6.4648e-17
6357.0371    6.3795e-17
6358.0520    6.3154e-17
6359.0670    6.3359e-17
6360.0820    6.3855e-17
6361.0969    6.3535e-17
6362.1119    6.4063e-17
6363.1269    6.4042e-17
6364.1418    6.6309e-17
6365.1568    6.5612e-17
6366.1717    6.5217e-17
6367.1867    6.3410e-17
6368.2017    6.3317e-17
6369.2166    6.3486e-17
6370.2316    6.4782e-17
6371.2465    6.4805e-17
6372.2615    6.3820e-17
6373.2765    6.2838e-17
6374.2914    6.3460e-17
6375.3064    6.3323e-17
6376.3214    6.4616e-17
6377.3363    6.4028e-17
6378.3513    6.2748e-17
6379.3662    6.3690e-17
6380.3812    6.2766e-17
6381.3962    6.2450e-17
6382.4111    6.2169e-17
6383.4261    6.2920e-17
6384.4411    6.2845e-17
6385.4560    6.2678e-17
6386.4710    6.3039e-17
6387.4859    6.4707e-17
6388.5009    6.3511e-17
6389.5159    6.2901e-17
6390.5308    6.3639e-17
6391.5458    6.2501e-17
6392.5607    6.2910e-17
6393.5757    6.1464e-17
6394.5907    6.1874e-17
6395.6056    6.1125e-17
6396.6206    6.1503e-17
6397.6356    6.2876e-17
6398.6505    6.3308e-17
6399.6655    6.3277e-17
6400.6804    6.3558e-17
6401.6954    6.4040e-17
6402.7104    6.2149e-17
6403.7253    6.3059e-17
6404.7403    6.2668e-17
6405.7553    6.2830e-17
6406.7702    6.5654e-17
6407.7852    6.4214e-17
6408.8001    6.3083e-17
6409.8151    6.3192e-17
6410.8301    6.2619e-17
6411.8450    6.3603e-17
6412.8600    6.3852e-17
6413.8750    6.4310e-17
6414.8899    6.4834e-17
6415.9049    6.4186e-17
6416.9198    6.3937e-17
6417.9348    6.3174e-17
6418.9498    6.2174e-17
6419.9647    6.2944e-17
6420.9797    6.4451e-17
6421.9946    6.3551e-17
6423.0096    6.3450e-17
6424.0246    6.3119e-17
6425.0395    6.1148e-17
6426.0545    6.1804e-17
6427.0695    6.2267e-17
6428.0844    6.1567e-17
6429.0994    6.2487e-17
6430.1143    6.1717e-17
6431.1293    6.1254e-17
6432.1443    6.2472e-17
6433.1592    6.3099e-17
6434.1742    6.2870e-17
6435.1892    6.1697e-17
6436.2041    6.0489e-17
6437.2191    6.1323e-17
6438.2340    6.1502e-17
6439.2490    6.0032e-17
6440.2640    6.1579e-17
6441.2789    6.1622e-17
6442.2939    6.0309e-17
6443.3088    6.0580e-17
6444.3238    6.1552e-17
6445.3388    6.3009e-17
6446.3537    6.1747e-17
6447.3687    5.9736e-17
6448.3837    6.0234e-17
6449.3986    6.0659e-17
6450.4136    6.0094e-17
6451.4285    6.2058e-17
6452.4435    6.1265e-17
6453.4585    6.2548e-17
6454.4734    6.0652e-17
6455.4884    6.3607e-17
6456.5034    6.1935e-17
6457.5183    5.9775e-17
6458.5333    6.1513e-17
6459.5482    6.1787e-17
6460.5632    6.0792e-17
6461.5782    6.2408e-17
6462.5931    6.1646e-17
6463.6081    6.2088e-17
6464.6231    6.1555e-17
6465.6380    6.0539e-17
6466.6530    6.0668e-17
6467.6679    6.0715e-17
6468.6829    6.0901e-17
6469.6979    6.1643e-17
6470.7128    6.1343e-17
6471.7278    6.1479e-17
6472.7427    5.9055e-17
6473.7577    5.9483e-17
6474.7727    5.9213e-17
6475.7876    5.9130e-17
6476.8026    5.8392e-17
6477.8176    5.9044e-17
6478.8325    6.0165e-17
6479.8475    5.9499e-17
6480.8624    5.8701e-17
6481.8774    5.9504e-17
6482.8924    5.8922e-17
6483.9073    5.7420e-17
6484.9223    5.7522e-17
6485.9373    5.8651e-17
6486.9522    5.9054e-17
6487.9672    5.8613e-17
6488.9821    5.8512e-17
6489.9971    5.8888e-17
6491.0121    5.8553e-17
6492.0270    5.7736e-17
6493.0420    5.8708e-17
6494.0570    5.9663e-17
6495.0719    5.8546e-17
6496.0869    5.7985e-17
6497.1018    5.9932e-17
6498.1168    5.9000e-17
6499.1318    5.9267e-17
6500.1467    5.8811e-17
6501.1617    5.9914e-17
6502.1766    6.0201e-17
6503.1916    5.9080e-17
6504.2066    5.9373e-17
6505.2215    6.0282e-17
6506.2365    6.1051e-17
6507.2515    6.0003e-17
6508.2664    6.1232e-17
6509.2814    6.0450e-17
6510.2963    6.0007e-17
6511.3113    5.9646e-17
6512.3263    5.8998e-17
6513.3412    5.7955e-17
6514.3562    5.9683e-17
6515.3712    5.8165e-17
6516.3861    5.6399e-17
6517.4011    5.8665e-17
6518.4160    5.9659e-17
6519.4310    5.8228e-17
6520.4460    5.8662e-17
6521.4609    5.9431e-17
6522.4759    5.8690e-17
6523.4908    5.8859e-17
6524.5058    5.9338e-17
6525.5208    5.8754e-17
6526.5357    5.9499e-17
6527.5507    5.7838e-17
6528.5657    5.8164e-17
6529.5806    5.8877e-17
6530.5956    5.7901e-17
6531.6105    5.8011e-17
6532.6255    5.8811e-17
6533.6405    5.9183e-17
6534.6554    6.0974e-17
6535.6704    6.1266e-17
6536.6854    5.9909e-17
6537.7003    5.8528e-17
6538.7153    5.9425e-17
6539.7302    6.0161e-17
6540.7452    5.9282e-17
6541.7602    5.7839e-17
6542.7751    5.7235e-17
6543.7901    5.7627e-17
6544.8050    5.8335e-17
6545.8200    5.8955e-17
6546.8350    5.9286e-17
6547.8499    5.9282e-17
6548.8649    5.7899e-17
6549.8799    5.6799e-17
6550.8948    5.7083e-17
6551.9098    5.8352e-17
6552.9247    5.8670e-17
6553.9397    5.7382e-17
6554.9547    5.8969e-17
6555.9696    5.8702e-17
6556.9846    5.8517e-17
6557.9996    5.7555e-17
6559.0145    6.0662e-17
6560.0295    6.0032e-17
6561.0444    5.9093e-17
6562.0594    5.8473e-17
6563.0744    6.0220e-17
6564.0893    6.1889e-17
6565.1043    5.8641e-17
6566.1193    6.0287e-17
6567.1342    6.0897e-17
6568.1492    6.1047e-17
6569.1641    6.1502e-17
6570.1791    6.2594e-17
6571.1941    6.2094e-17
6572.2090    6.1354e-17
6573.2240    6.2483e-17
6574.2389    6.2002e-17
6575.2539    6.1719e-17
6576.2689    6.0287e-17
6577.2838    6.0074e-17
6578.2988    6.0339e-17
6579.3138    6.1012e-17
6580.3287    6.0430e-17
6581.3437    5.9590e-17
6582.3586    6.1175e-17
6583.3736    6.0723e-17
6584.3886    5.9752e-17
6585.4035    5.9159e-17
6586.4185    5.8633e-17
6587.4335    5.8473e-17
6588.4484    5.8016e-17
6589.4634    5.7809e-17
6590.4783    5.7738e-17
6591.4933    5.7882e-17
6592.5083    5.7315e-17
6593.5232    5.7695e-17
6594.5382    5.7503e-17
6595.5531    5.7788e-17
6596.5681    5.8421e-17
6597.5831    5.7960e-17
6598.5980    5.9274e-17
6599.6130    6.1063e-17
6600.6280    5.9447e-17
6601.6429    5.9462e-17
6602.6579    6.0706e-17
6603.6728    6.0487e-17
6604.6878    6.0594e-17
6605.7028    6.1095e-17
6606.7177    6.1198e-17
6607.7327    6.0337e-17
6608.7477    5.9370e-17
6609.7626    6.0901e-17
6610.7776    6.1512e-17
6611.7925    6.0645e-17
6612.8075    5.9523e-17
6613.8225    5.9834e-17
6614.8374    5.9825e-17
6615.8524    5.8134e-17
6616.8674    5.8595e-17
6617.8823    5.9835e-17
6618.8973    5.7728e-17
6619.9122    5.8030e-17
6620.9272    5.9033e-17
6621.9422    5.7525e-17
6622.9571    5.7584e-17
6623.9721    5.7944e-17
6624.9870    5.7429e-17
6626.0020    5.8169e-17
6627.0170    5.7432e-17
6628.0319    5.7593e-17
6629.0469    5.6791e-17
6630.0619    5.6205e-17
6631.0768    5.7010e-17
6632.0918    5.8333e-17
6633.1067    5.8435e-17
6634.1217    5.8647e-17
6635.1367    5.9875e-17
6636.1516    6.0256e-17
6637.1666    6.0107e-17
6638.1816    5.9181e-17
6639.1965    5.8175e-17
6640.2115    5.8327e-17
6641.2264    5.8696e-17
6642.2414    5.8269e-17
6643.2564    5.7780e-17
6644.2713    5.8381e-17
6645.2863    5.7707e-17
6646.3012    5.8746e-17
6647.3162    5.9506e-17
6648.3312    6.0001e-17
6649.3461    6.0506e-17
6650.3611    5.9076e-17
6651.3761    5.6933e-17
6652.3910    5.6452e-17
6653.4060    5.7076e-17
6654.4209    5.8009e-17
6655.4359    5.8824e-17
6656.4509    5.8107e-17
6657.4658    5.9487e-17
6658.4808    5.9055e-17
6659.4958    5.7955e-17
6660.5107    5.9159e-17
6661.5257    5.8572e-17
6662.5406    5.8050e-17
6663.5556    5.8579e-17
6664.5706    6.1347e-17
6665.5855    5.9561e-17
6666.6005    5.9367e-17
6667.6155    5.8777e-17
6668.6304    5.9249e-17
6669.6454    5.9112e-17
6670.6603    5.9525e-17
6671.6753    5.8943e-17
6672.6903    5.9401e-17
6673.7052    5.8964e-17
6674.7202    5.8836e-17
6675.7351    6.0604e-17
6676.7501    6.0934e-17
6677.7651    6.4664e-17
6678.7800    7.1231e-17
6679.7950    7.6004e-17
6680.8100    7.8570e-17
6681.8249    7.7129e-17
6682.8399    7.1896e-17
6683.8548    6.5322e-17
6684.8698    5.9724e-17
6685.8848    5.7702e-17
6686.8997    5.9075e-17
6687.9147    5.8727e-17
6688.9297    5.8753e-17
6689.9446    5.8327e-17
6690.9596    5.9344e-17
6691.9745    5.9471e-17
6692.9895    5.8944e-17
6694.0045    5.8927e-17
6695.0194    5.8417e-17
6696.0344    5.7679e-17
6697.0493    5.5969e-17
6698.0643    5.8623e-17
6699.0793    5.9093e-17
6700.0942    5.9553e-17
6701.1092    6.0395e-17
6702.1242    5.8782e-17
6703.1391    5.9707e-17
6704.1541    5.7265e-17
6705.1690    5.6047e-17
6706.1840    5.6949e-17
6707.1990    5.7616e-17
6708.2139    5.8429e-17
6709.2289    6.0358e-17
6710.2439    6.0412e-17
6711.2588    5.7464e-17
6712.2738    5.6406e-17
6713.2887    5.7785e-17
6714.3037    5.7198e-17
6715.3187    5.6942e-17
6716.3336    5.7334e-17
6717.3486    5.7845e-17
6718.3636    5.7414e-17
6719.3785    5.8048e-17
6720.3935    5.7730e-17
6721.4084    5.8495e-17
6722.4234    5.8746e-17
6723.4384    5.8315e-17
6724.4533    5.7901e-17
6725.4683    5.7704e-17
6726.4832    5.7019e-17
6727.4982    5.6872e-17
6728.5132    5.6129e-17
6729.5281    5.6247e-17
6730.5431    5.7606e-17
6731.5581    5.7209e-17
6732.5730    5.7082e-17
6733.5880    5.7653e-17
6734.6029    5.6773e-17
6735.6179    5.6877e-17
6736.6329    5.6720e-17
6737.6478    5.6105e-17
6738.6628    5.7424e-17
6739.6778    5.8476e-17
6740.6927    5.8109e-17
6741.7077    5.7839e-17
6742.7226    5.8095e-17
6743.7376    5.7955e-17
6744.7526    5.7913e-17
6745.7675    5.6972e-17
6746.7825    5.6793e-17
6747.7975    5.8685e-17
6748.8124    5.8424e-17
6749.8274    5.6379e-17
6750.8423    5.8477e-17
6751.8573    5.6935e-17
6752.8723    5.8186e-17
6753.8872    5.5806e-17
6754.9022    5.7183e-17
6755.9171    5.5554e-17
6756.9321    5.6619e-17
6757.9471    5.6201e-17
6758.9620    5.6569e-17
6759.9770    5.7726e-17
6760.9920    5.7156e-17
6762.0069    5.6797e-17
6763.0219    5.7983e-17
6764.0368    5.8522e-17
6765.0518    5.7849e-17
6766.0668    5.7595e-17
6767.0817    5.7232e-17
6768.0967    5.6512e-17
6769.1117    5.6595e-17
6770.1266    5.6928e-17
6771.1416    5.6929e-17
6772.1565    5.7350e-17
6773.1715    5.6643e-17
6774.1865    5.5810e-17
6775.2014    5.5347e-17
6776.2164    5.5358e-17
6777.2313    5.6294e-17
6778.2463    5.7028e-17
6779.2613    5.6081e-17
6780.2762    5.7306e-17
6781.2912    5.8637e-17
6782.3062    5.7981e-17
6783.3211    5.6754e-17
6784.3361    5.6874e-17
6785.3510    5.6586e-17
6786.3660    5.7073e-17
6787.3810    5.7454e-17
6788.3959    5.7479e-17
6789.4109    5.8243e-17
6790.4259    5.6891e-17
6791.4408    5.7570e-17
6792.4558    5.7823e-17
6793.4707    5.6517e-17
6794.4857    5.9376e-17
6795.5007    5.8027e-17
6796.5156    5.7899e-17
6797.5306    5.6541e-17
6798.5455    5.5465e-17
6799.5605    5.7585e-17
6800.5755    5.6898e-17
6801.5904    5.7942e-17
6802.6054    5.6588e-17
6803.6204    5.6467e-17
6804.6353    5.7244e-17
6805.6503    5.7314e-17
6806.6652    5.5839e-17
6807.6802    5.5380e-17
6808.6952    5.5706e-17
6809.7101    5.5352e-17
6810.7251    5.6154e-17
6811.7401    5.4667e-17
6812.7550    5.5290e-17
6813.7700    5.4857e-17
6814.7849    5.4862e-17
6815.7999    5.6805e-17
6816.8149    5.5393e-17
6817.8298    5.3626e-17
6818.8448    5.5743e-17
6819.8598    5.6138e-17
6820.8747    5.5653e-17
6821.8897    5.5717e-17
6822.9046    5.5270e-17
6823.9196    5.6237e-17
6824.9346    5.6463e-17
6825.9495    5.4391e-17
6826.9645    5.2996e-17
6827.9794    5.5426e-17
6828.9944    5.6747e-17
6830.0094    5.7169e-17
6831.0243    5.7181e-17
6832.0393    5.6429e-17
6833.0543    6.0549e-17
6834.0692    5.8617e-17
6835.0842    5.9328e-17
6836.0991    6.1811e-17
6837.1141    6.1834e-17
6838.1291    5.9384e-17
6839.1440    5.6715e-17
6840.1590    5.4016e-17
6841.1740    5.4010e-17
6842.1889    5.4704e-17
6843.2039    5.4177e-17
6844.2188    5.2721e-17
6845.2338    5.7327e-17
6846.2488    5.8268e-17
6847.2637    5.3329e-17
6848.2787    5.3664e-17
6849.2936    5.5599e-17
6850.3086    5.6994e-17
6851.3236    5.6874e-17
6852.3385    5.6618e-17
6853.3535    5.8764e-17
6854.3685    5.7431e-17
6855.3834    5.6178e-17
6856.3984    5.5372e-17
6857.4133    5.3903e-17
6858.4283    5.3545e-17
6859.4433    5.1948e-17
6860.4582    4.9280e-17
6861.4732    4.7307e-17
6862.4882    4.9297e-17
