#SIMPLE  =                    T / Fits standard                                  
#BITPIX  =                   16 / Bits per pixel                                 
#NAXIS   =                    0 / Number of axes                                 
#EXTEND  =                    T / File may contain extensions                    
#ORIGIN  = 'NOAO-IRAF FITS Image Kernel July 2003' / FITS file originator        
#DATE    = '2020-01-30T01:53:12' / Date FITS file was generated                  
#IRAF-TLM= '2020-01-30T02:44:59' / Time of last modification                     
#COMMENT   FITS (Flexible Image Transport System) format is defined in 'Astronomy
#COMMENT   and Astrophysics', volume 376, page 359; bibcode: 2001A&A...376..359H 
#INSTRUME= 'GMOS-N  '           / Instrument used to acquire data                
#OBJECT  = 'ZTF20aahbamv'       / Object Name                                    
#OBSTYPE = 'OBJECT  '           / Observation type                               
#OBSCLASS= 'science '           / Observe class                                  
#GEMPRGID= 'GN-2019B-Q-901'     / Gemini programme ID                            
#OBSID   = 'GN-2019B-Q-901-106' / Observation ID / Data label                    
#DATALAB = 'GN-2019B-Q-901-106-002' / DHS data label                             
#OBSERVER= 'S. Stewart'         / Observer                                       
#OBSERVAT= 'Gemini-North'       / Name of telescope (Gemini-North|Gemini-South)  
#TELESCOP= 'Gemini-North'       / Gemini-North                                   
#PARALLAX=                   0. / Parallax of Target                             
#RADVEL  =                   0. / Heliocentric Radial Velocity                   
#EPOCH   =                2000. / Epoch for Target coordinates                   
#EQUINOX =                2000. / Equinox of coordinate system                   
#TRKEQUIN=                2000. / Tracking equinox                               
#SSA     = 'B. Cooper, D. Faes' / SSA                                            
#RA      =             132.4195 / Right Ascension                                
#DEC     =          30.18736111 / Declination of Target                          
#ELEVATIO=     36.7078652777778 / Current Elevation                              
#AZIMUTH =    -66.5981319444444 / Current Azimuth                                
#CRPA    =   -0.822314688905476 / Current Cass Rotator Position Angle            
#HA      = '+03:53:28.03'       / Telescope hour angle                           
#LT      = '04:32:59.8'         / Local time at start of observation             
#TRKFRAME= 'FK5     '           / Tracking co-ordinate                           
#DECTRACK=                   0. / Differential tracking rate Dec                 
#TRKEPOCH=          58877.60006 / Differential tracking reference epoch          
#RATRACK =                   0. / Differential tracking rate RA                  
#FRAME   = 'FK5     '           / Target coordinate system                       
#PMDEC   =                   0. / Proper Motion in Declination                   
#PMRA    =                   0. / Proper Motion in RA                            
#WAVELENG=                5200. / Effective Target Wavelength                    
#RAWIQ   = '85-percentile'      / Raw Image Quality                              
#RAWCC   = '70-percentile'      / Raw Cloud Cover                                
#RAWWV   = '20-percentile'      / Raw Water Vapour/Transparency                  
#RAWBG   = '50-percentile'      / Raw Background                                 
#RAWPIREQ= 'YES     '           / PI Requirements Met                            
#RAWGEMQA= 'USABLE  '           / Gemini Quality Assessment                      
#CGUIDMOD= 'Basic   '           / Carousel Mode                                  
#UT      = '14:32:59.8'         / UT at observation start                        
#M2BAFFLE= 'VISIBLE '           / Position of M2 baffle                          
#M2CENBAF= 'CLOSED  '           / Position of M2 central hole baffle             
#ST      = '12:44:22.3'         / Sidereal time at the start of the exposure     
#XOFFSET =     0.30273762750343 / Telescope offset in x in arcsec                
#YOFFSET =    -3.26434989743278 / Telescope offset in y in arcsec                
#POFFSET =    0.296925838173894 / Telescope offset in p in arcsec                
#QOFFSET =    -3.26488366876992 / Telescope offset in q in arcsec                
#RAOFFSET=    -3.23333588406592 / Telescope offset in RA in arcsec               
#DECOFFSE=   -0.541451184122328 / Telescope offset in DEC in arcsec              
#RATRGOFF=                   0. / Target offset in RA in arcsec                  
#DECTRGOF=                   0. / Target offset in DEC in arcsec                 
#PA      =                85.69 / Sky Position Angle at start of exposure        
#IAA     =              179.898 / Instrument Alignment Angle                     
#SFRT2   =              178.842 / Science fold rotation angle (degrees)          
#SFTILT  =                44.93 / Science fold tilt angle (degrees)              
#SFLINEAR=                  -2. / Science fold linear position (mm)              
#AOFOLD  = 'park-pos.'          / AO Pick-Off Mirror Position                    
#PWFS1_ST= 'parked  '           / PWFS1 probe state (frozen,guiding,parked)      
#PWFS2_ST= 'guiding '           / PWFS2 probe state (frozen,guiding,parked)      
#OIWFS_ST= 'parked  '           / OIWFS probe state (frozen,guiding,parked)      
#AOWFS_ST= 'parked  '           / AOWFS probe state (frozen,guiding,parked)      
#SCIBAND =                    1 / Science Ranking Band                           
#REQIQ   = 'Any     '           / Requested Image Quality                        
#REQCC   = '70-percentile'      / Requested Cloud Cover                          
#REQBG   = 'Any     '           / Requested Background                           
#REQWV   = 'Any     '           / Requested Water Vapour                         
#NUMREQTW=                    1 / Number of Requested Timing Window REQTW entries
#REQMINAM=                   1. / Requested Minimum Airmass                      
#REQMAXAM=                   2. / Requested Maximum Airmass                      
#REQTWS01= '2020-01-29T13:56:35' / Requested Timing Window 01 Start (UTC)        
#REQTWD01=              259200. / Requested Timing Window 01 Duration [seconds]  
#REQTWN01=                    0 / Requested Timing Window 01 Number of Repeats   
#REQTWP01=                   0. / Requested Timing Window 01 Repeat Period [secon
#P2ARA   =            132.54355 / RA of PWFS2 guide star                         
#P2ARV   =                   0. / PWFS2 Heliocentric Radial Velocity             
#P2AWAVEL=                6000. / PWFS2 Effective Target Wavelength              
#P2ADEC  =          30.21562778 / Declination of PWFS2 guide star                
#P2AEPOCH=                2000. / Epoch for PWFS2 guide star coordinates         
#P2AEQUIN=                2000. / Equinox for PWFS2 guide star coordinates       
#P2AFRAME= 'FK5     '           / PWFS2 Target co-ordinate system                
#P2AOBJEC= 'PWFS2 (1)'          / Object Name for PWFS 2, Chop A                 
#P2APMDEC=                   0. / PWFS2 Proper Motion in Declination             
#P2APMRA =                   0. / PWFS2 Proper Motion in RA                      
#P2APARAL=                   0. / PWFS2 Parallax of Target                       
#P2FOCUS =                 -0.1 / PWFS2 Focus Offset (mm)                        
#P2FREQ  =                 200. / PWFS2 sampling frequency (Hz)                  
#HUMIDITY=                  10. / The Relative Humidity (fraction, 0..101).      
#TAMBIENT=                  2.3 / The ambient temp (C).                          
#TAMBIEN2=                36.14 / The ambient temp (F).                          
#PRESSURE=            464.42332 / The atmospheric pressure (mm Hg).              
#PRESSUR2=               61900. / The atmospheric pressure (Pa).                 
#DEWPOINT=                -26.9 / The dew point (C).                             
#DEWPOIN2=               -16.42 / The dew point (F).                             
#WINDSPEE=                   7. / The wind speed (m/s).                          
#WINDSPE2=               15.659 / The wind speed (mph).                          
#WINDDIRE=                  54. / The wind direction (degrees).                  
#INPORT  =                    5 / Number of ISS port where GMOS was located      
#GMOSCC  = 'GMOS-N (V7-13)'     / GMOS components controller s/w                 
#TIME-OBS= '14:33:00.3'         / Time of observation                            
#PREIMAGE=                    F / MOS pre-imaging                                
#CONID   = 'ARC-III '           / Detector controller ID                         
#DETECTOR= 'GMOS-N + Hamamatsu' / Detector name                                  
#DEWAR   = 'Lab Cryostat'       / Dewar name                                     
#ARRYTMPD=             -102.682 / Array temperature D (Celsius)                  
#ARRYTMPA=              -96.346 / Array temperature A (Celsius)                  
#ARRYTMPB=              -95.971 / Array temperature B (Celsius)                  
#ARRYTMPC=              -95.186 / Array temperature C (Celsius)                  
#ARRYTSET=               -102.7 / Array temperature Setpoint (Celsius)           
#DETSIZE = '[1:6144,1:4224]'    / Detector size                                  
#NCCDS   =                    3 / Number of CCD chips                            
#NAMPS   =                    4 / Number of amplifiers                           
#SHUTTER = 'OPEN    '           / Shutter state during observation               
#AMPINTEG=                11880 / Amplifier integration time                     
#OBSEPOCH=     2020.07695074088 / Epoch at start of exposure                     
#TIMESYS = 'UTC     '           / Time system used                               
#DATE-OBS= '2020-01-29'         / UT Date of observation (YYYY-MM-DD)            
#GMOSTHT = 'WARNING '           / Shutter health                                 
#NSUBEXP =                    1 / Number of sub exposures                        
#UTSTART = '14:33:03.9833'      / UT at observation start                        
#UTEND   = '14:43:03.9834'      / UT at observation end                          
#EXPTIME =                 600. / Exposure time in seconds                       
#ELAPSED =                 600. / Elapsed observation time in seconds            
#DARKTIME=     621.083364009857 / Dark current integration in seconds            
#MASKID  =             10005354 / Mask/IFU barcode                               
#MASKNAME= '1.0arcsec'          / Mask name                                      
#MASKTYP =                    1 / Mask/IFU type (0=none/-1=IFU/1=mask)           
#MASKLOC =                    0 / Mask/IFU location (-1=unknown/0=FP/1=cassette) 
#FILTER1 = 'open1-6 '           / Filter 1 name                                  
#FILTID1 =             20000018 / Filter 1 barcode                               
#FILTER2 = 'open2-8 '           / Filter 2 name                                  
#FILTID2 =             20000008 / Filter 2 barcode                               
#GRATING = 'B600+_G5307'        / Grating name                                   
#GRATID  =             30000018 / Grating barcode                                
#GRWLEN  =                 520. / Grating wavelength at slit (nm)                
#CENTWAVE=                 520. / Central wavelength (nm)                        
#GRORDER =                    1 / Grating order                                  
#GRTILT  =              55.0885 / Grating tilt angle (degrees)                   
#GRSTEP  =            5888.1087 / Requested grating motor step position          
#DTAX    =                  88. / Detector translation X position (microns)      
#DTAY    =                99.36 / Detector translation Y position (microns)      
#DTAZ    =                1878. / Detector translation Z position (microns)      
#DTAZST  =                1878. / Focus at observation start (microns)           
#DTAZEN  =                1878. / Focus at observation end (microns)             
#DTAZME  =                1770. / Mean focus during observation (microns)        
#DTMODE  = 'FOLLOW-XY'          / Detector translation stage mode                
#ADCMODE = '        '           / ADC mode                                       
#GMOSDC  = 'gmosdc-6.10'        / GMOS detector controller s/w                   
#DETTYPE = 'S10892-N'           / Detector array type                            
#DETID   = 'BI13-20-4k-1,BI12-09-4k-2,BI13-18-4k-2' / Chip IDs                   
#EXPOSURE=                 600. / Requested exposure time in seconds             
#ADCUSED =                    1 / ADC used? (0=yes/1=no)                         
#DETNROI =                    1 / No. regions of interest                        
#ADCENPST=                   0. / Start entrance prism angle of ADC              
#ADCENPEN=                   0. / End entrance prism angle of ADC                
#ADCENPME=                   0. / Mean entrance prism angle of ADC               
#ADCEXPST=                   0. / Start exit prism angle of ADC                  
#ADCEXPEN=                   0. / End exit prism angle of ADC                    
#ADCEXPME=                   0. / Mean exit prism angle of ADC                   
#ADCWLEN1=                   0. / Lower wavelength for ADC calculation           
#ADCWLEN2=                   0. / Upper wavelength for ADC calculation           
#DETRO1X =                    1 / ROI 1 X start                                  
#DETRO1XS=                 3072 / ROI 1 X size                                   
#DETRO1Y =                    1 / ROI 1 Y start                                  
#DETRO1YS=                 2112 / ROI 1 Y size                                   
#AIRMASS =                1.716 / Mean airmass for the observation               
#AMSTART =                 1.67 / Airmass at start of exposure                   
#AMEND   =                1.764 / Airmass at end of exposure                     
#PROP_MD =                    F / Proprietary Metadata                           
#RELEASE = '2021-01-29'         / End of proprietary period YYY-MM-DD            
#NSCIEXT =                    1 / Number of science extensions                   
#PIXSCALE=               0.1614 / Pixel scale in Y in arcsec/pixel               
#NEXTEND =                    2 / Number of extensions                           
#OBSMODE = 'LONGSLIT'           / Observing mode (IMAGE|IFU|MOS|LONGSLIT)        
#GEM-TLM = '2020-01-30T02:44:32' / UT Last modification with GEMINI              
#GPREPARE= '2020-01-30T01:53:11' / UT Time stamp for GPREPARE                    
#TRIMMED = 'yes     '           / Overscan section trimmed                       
#GGAIN   = '2020-01-30T01:53:29' / UT Time stamp for GGAIN                       
#BIASIM  = 'zero    '           / Bias image used by GIREDUCE                    
#GIREDUCE= '2020-01-30T01:53:29' / UT Time stamp for GIREDUCE                    
#CTYPE1  = 'RA---TAN'           / R.A. in tangent plane projection               
#CTYPE2  = 'DEC--TAN'           / DEC. in tangent plane projection               
#CRPIX1  =        1568.29695036 / Ref pix of axis 1                              
#CRPIX2  =     1044.27781174676 / Ref pix of axis 2                              
#CRVAL1  =     132.418461055246 / RA at Ref pix in decimal degrees               
#CRVAL2  =     30.1872107239616 / DEC at Ref pix in decimal degrees              
#CD1_1   = -3.37776260513257E-06 / WCS matrix element 1 1                        
#CD1_2   = -4.48396781186288E-05 / WCS matrix element 1 2                        
#CD2_1   = 4.48212826831568E-05 / WCS matrix element 2 1                         
#CD2_2   = -3.3813893134169E-06 / WCS matrix element 2 2                         
#CCDSUM  = '2 2     '           / CCD sum                                        
#GAIN    =                  1.0 / Amplifier gain                                 
#GAINMULT=                 1.65 / Gain multiplication                            
#RDNOISE =                 3.98 / Readout noise                                  
#RADECSYS= 'FK5     '           / R.A./DEC. coordinate system reference          
#EQUINOX =                2000. / Equinox of coordinate system                   
#MJD-OBS =     58877.6070554403 / MJD of start of obseration                     
#DISPAXIS=                    1 / Dispersion Axis                                
#GMOSAIC = '2020-01-30T01:53:30' / UT Time stamp for GMOSAIC                     
#GMSINTER= 'linear  '           / Interpolant used by GMOSAIC                    
#WMEF    = '2020-01-30T02:44:31' / UT Time stamp for WMEF                        
#GSFLATIM= 'flat1.fits'         / Flatfield Image used by gsreduce               
#GSAPPWAV= '2020-01-30T01:53:31' / UT Time stamp for GSAPPWAVE                   
#GSREDUCE= '2020-01-30T01:53:31' / UT Time stamp for GSREDUCE                    
#GSTRANSF= '2020-01-30T02:44:32' / UT Time stamp for GSTRANSFORM    
#
3614.7847    1.1530e-16
3615.8037    1.1692e-16
3616.8228    1.1853e-16
3617.8418    1.2014e-16
3618.8608    1.2176e-16
3619.8799    1.2337e-16
3620.8989    1.2499e-16
3621.9179    1.2660e-16
3622.9370    1.2822e-16
3623.9560    1.2979e-16
3624.9750    1.3127e-16
3625.9941    1.3273e-16
3627.0131    1.3417e-16
3628.0321    1.3561e-16
3629.0512    1.3704e-16
3630.0702    1.3846e-16
3631.0893    1.3986e-16
3632.1083    1.4126e-16
3633.1273    1.4264e-16
3634.1464    1.4401e-16
3635.1654    1.4536e-16
3636.1844    1.4821e-16
3637.2035    1.4930e-16
3638.2225    1.5324e-16
3639.2415    1.0079e-16
3640.2606    8.6772e-17
3641.2796    1.0121e-16
3642.2986    1.4375e-16
3643.3177    1.0909e-16
3644.3367    1.0037e-16
3645.3557    1.1220e-16
3646.3748    1.1852e-16
3647.3938    1.1620e-16
3648.4128    8.1242e-17
3649.4319    8.3499e-17
3650.4509    1.3493e-16
3651.4699    1.7287e-16
3652.4890    1.5301e-16
3653.5080    1.2275e-16
3654.5270    1.1428e-16
3655.5461    1.1654e-16
3656.5651    1.1134e-16
3657.5841    1.1959e-16
3658.6032    1.1982e-16
3659.6222    1.3754e-16
3660.6413    1.9334e-16
3661.6603    1.3973e-16
3662.6793    1.7523e-16
3663.6984    1.5672e-16
3664.7174    1.6356e-16
3665.7364    1.5059e-16
3666.7555    1.0440e-16
3667.7745    1.5153e-16
3668.7935    1.2630e-16
3669.8126    1.7681e-16
3670.8316    1.7376e-16
3671.8506    1.8527e-16
3672.8697    1.6427e-16
3673.8887    1.8852e-16
3674.9077    1.4607e-16
3675.9268    1.7212e-16
3676.9458    2.4532e-16
3677.9648    2.6620e-16
3678.9839    1.9657e-16
3680.0029    1.5897e-16
3681.0219    1.8026e-16
3682.0410    1.6965e-16
3683.0600    1.7949e-16
3684.0790    1.7479e-16
3685.0981    1.5334e-16
3686.1171    1.6865e-16
3687.1361    1.8448e-16
3688.1552    1.8404e-16
3689.1742    1.9627e-16
3690.1933    2.1663e-16
3691.2123    1.8530e-16
3692.2313    1.9707e-16
3693.2504    2.1556e-16
3694.2694    1.8075e-16
3695.2884    1.6548e-16
3696.3075    1.6941e-16
3697.3265    1.0115e-16
3698.3455    1.1120e-16
3699.3646    1.6910e-16
3700.3836    1.9346e-16
3701.4026    1.6871e-16
3702.4217    1.2989e-16
3703.4407    1.8036e-16
3704.4597    1.6897e-16
3705.4788    1.1324e-16
3706.4978    1.1749e-16
3707.5168    1.4746e-16
3708.5359    1.6982e-16
3709.5549    1.5472e-16
3710.5739    1.7909e-16
3711.5930    2.0175e-16
3712.6120    1.8413e-16
3713.6310    1.6959e-16
3714.6501    1.6690e-16
3715.6691    1.4951e-16
3716.6881    1.2438e-16
3717.7072    1.2641e-16
3718.7262    1.8210e-16
3719.7453    2.0752e-16
3720.7643    1.6361e-16
3721.7833    1.4468e-16
3722.8024    1.7345e-16
3723.8214    2.0805e-16
3724.8404    2.3818e-16
3725.8595    1.8463e-16
3726.8785    1.7864e-16
3727.8975    1.6807e-16
3728.9166    2.1703e-16
3729.9356    2.2703e-16
3730.9546    1.8508e-16
3731.9737    1.8113e-16
3732.9927    1.9523e-16
3734.0117    1.6954e-16
3735.0308    1.8146e-16
3736.0498    1.6367e-16
3737.0688    1.4888e-16
3738.0879    1.2082e-16
3739.1069    1.3262e-16
3740.1259    1.7656e-16
3741.1450    1.6667e-16
3742.1640    1.9285e-16
3743.1830    2.0089e-16
3744.2021    1.6452e-16
3745.2211    1.7534e-16
3746.2402    1.9156e-16
3747.2592    1.7757e-16
3748.2782    1.7529e-16
3749.2973    1.6071e-16
3750.3163    1.4987e-16
3751.3353    1.5280e-16
3752.3544    1.8475e-16
3753.3734    2.0525e-16
3754.3924    1.6027e-16
3755.4115    1.5187e-16
3756.4305    1.6503e-16
3757.4495    1.8414e-16
3758.4686    1.9326e-16
3759.4876    2.0943e-16
3760.5066    1.6058e-16
3761.5257    1.6232e-16
3762.5447    1.7548e-16
3763.5637    1.9068e-16
3764.5828    1.8193e-16
3765.6018    1.9840e-16
3766.6208    2.0042e-16
3767.6399    1.9762e-16
3768.6589    1.8803e-16
3769.6779    2.0586e-16
3770.6970    1.9835e-16
3771.7160    1.8207e-16
3772.7350    1.8534e-16
3773.7541    2.0059e-16
3774.7731    1.8771e-16
3775.7922    1.9256e-16
3776.8112    1.6331e-16
3777.8302    1.4307e-16
3778.8493    1.7314e-16
3779.8683    2.0204e-16
3780.8873    1.9369e-16
3781.9064    1.8349e-16
3782.9254    1.9040e-16
3783.9444    1.9450e-16
3784.9635    1.9873e-16
3785.9825    1.6638e-16
3787.0015    1.7019e-16
3788.0206    1.8774e-16
3789.0396    1.6754e-16
3790.0586    1.7323e-16
3791.0777    1.8968e-16
3792.0967    2.1092e-16
3793.1157    2.0962e-16
3794.1348    1.7047e-16
3795.1538    1.9081e-16
3796.1728    2.0784e-16
3797.1919    1.9798e-16
3798.2109    2.0774e-16
3799.2299    1.9731e-16
3800.2490    2.0091e-16
3801.2680    1.9677e-16
3802.2870    2.0653e-16
3803.3061    2.2621e-16
3804.3251    2.1455e-16
3805.3442    2.1684e-16
3806.3632    2.1067e-16
3807.3822    2.1775e-16
3808.4013    2.1310e-16
3809.4203    1.9720e-16
3810.4393    1.8488e-16
3811.4584    1.9149e-16
3812.4774    1.9010e-16
3813.4964    2.2507e-16
3814.5155    2.2381e-16
3815.5345    1.9599e-16
3816.5535    1.6317e-16
3817.5726    1.6077e-16
3818.5916    2.0305e-16
3819.6106    2.0356e-16
3820.6297    1.9327e-16
3821.6487    2.0304e-16
3822.6677    2.1739e-16
3823.6868    2.3390e-16
3824.7058    2.2403e-16
3825.7248    1.9622e-16
3826.7439    1.9821e-16
3827.7629    1.9948e-16
3828.7819    1.9573e-16
3829.8010    1.8493e-16
3830.8200    1.8854e-16
3831.8390    1.6663e-16
3832.8581    1.6997e-16
3833.8771    1.8833e-16
3834.8962    1.9775e-16
3835.9152    1.8620e-16
3836.9342    1.6531e-16
3837.9533    1.7498e-16
3838.9723    1.9825e-16
3839.9913    2.0198e-16
3841.0104    1.8042e-16
3842.0294    1.9051e-16
3843.0484    1.9352e-16
3844.0675    1.9697e-16
3845.0865    1.9659e-16
3846.1055    1.7685e-16
3847.1246    1.7454e-16
3848.1436    1.9257e-16
3849.1626    1.9028e-16
3850.1817    2.0758e-16
3851.2007    2.1288e-16
3852.2197    2.0647e-16
3853.2388    2.0708e-16
3854.2578    2.1249e-16
3855.2768    1.7877e-16
3856.2959    1.7903e-16
3857.3149    1.8225e-16
3858.3339    1.9962e-16
3859.3530    1.9040e-16
3860.3720    1.8956e-16
3861.3910    1.9472e-16
3862.4101    1.8009e-16
3863.4291    1.7863e-16
3864.4482    2.0131e-16
3865.4672    1.9065e-16
3866.4862    1.8882e-16
3867.5053    2.0452e-16
3868.5243    2.0695e-16
3869.5433    1.9255e-16
3870.5624    2.1383e-16
3871.5814    1.9675e-16
3872.6004    1.9618e-16
3873.6195    2.1409e-16
3874.6385    2.0170e-16
3875.6575    2.0038e-16
3876.6766    2.0450e-16
3877.6956    2.1448e-16
3878.7146    1.9965e-16
3879.7337    1.9521e-16
3880.7527    1.9180e-16
3881.7717    2.0478e-16
3882.7908    2.1706e-16
3883.8098    1.9815e-16
3884.8288    1.8549e-16
3885.8479    1.9811e-16
3886.8669    2.0512e-16
3887.8859    1.8820e-16
3888.9050    1.9040e-16
3889.9240    2.0749e-16
3890.9430    1.9519e-16
3891.9621    1.9260e-16
3892.9811    1.8811e-16
3894.0002    1.7691e-16
3895.0192    1.7849e-16
3896.0382    1.9507e-16
3897.0573    1.9671e-16
3898.0763    1.9296e-16
3899.0953    1.9244e-16
3900.1144    1.8972e-16
3901.1334    1.7433e-16
3902.1524    1.4878e-16
3903.1715    1.6955e-16
3904.1905    1.7695e-16
3905.2095    1.9833e-16
3906.2286    2.0369e-16
3907.2476    1.9513e-16
3908.2666    1.9868e-16
3909.2857    1.8035e-16
3910.3047    1.7426e-16
3911.3237    1.9456e-16
3912.3428    2.1218e-16
3913.3618    2.0602e-16
3914.3808    1.8963e-16
3915.3999    1.8933e-16
3916.4189    1.9022e-16
3917.4379    1.8622e-16
3918.4570    1.9229e-16
3919.4760    2.1118e-16
3920.4950    2.0914e-16
3921.5141    2.0163e-16
3922.5331    2.1789e-16
3923.5522    1.9892e-16
3924.5712    1.9502e-16
3925.5902    2.0998e-16
3926.6093    2.0615e-16
3927.6283    1.8416e-16
3928.6473    1.8312e-16
3929.6664    1.8646e-16
3930.6854    1.9161e-16
3931.7044    1.7070e-16
3932.7235    1.7132e-16
3933.7425    1.7707e-16
3934.7615    1.9090e-16
3935.7806    1.8875e-16
3936.7996    1.7591e-16
3937.8186    1.6885e-16
3938.8377    1.9440e-16
3939.8567    1.9924e-16
3940.8757    1.9968e-16
3941.8948    1.8982e-16
3942.9138    1.7649e-16
3943.9328    1.7891e-16
3944.9519    1.8757e-16
3945.9709    1.8561e-16
3946.9899    1.9387e-16
3948.0090    2.0338e-16
3949.0280    2.0349e-16
3950.0471    2.0607e-16
3951.0661    1.9737e-16
3952.0851    1.9648e-16
3953.1042    1.8091e-16
3954.1232    1.8116e-16
3955.1422    1.8735e-16
3956.1613    1.8519e-16
3957.1803    1.9114e-16
3958.1993    1.9188e-16
3959.2184    1.8638e-16
3960.2374    1.8931e-16
3961.2564    1.9247e-16
3962.2755    1.9315e-16
3963.2945    1.9024e-16
3964.3135    1.9649e-16
3965.3326    1.9891e-16
3966.3516    1.9998e-16
3967.3706    1.8707e-16
3968.3897    1.8407e-16
3969.4087    1.8384e-16
3970.4277    1.7939e-16
3971.4468    1.7919e-16
3972.4658    1.8798e-16
3973.4848    1.8911e-16
3974.5039    1.9674e-16
3975.5229    1.8549e-16
3976.5419    1.7957e-16
3977.5610    1.7767e-16
3978.5800    1.6322e-16
3979.5991    1.7365e-16
3980.6181    1.7837e-16
3981.6371    1.8441e-16
3982.6562    1.7533e-16
3983.6752    1.7732e-16
3984.6942    1.9418e-16
3985.7133    1.9833e-16
3986.7323    1.9660e-16
3987.7513    1.8926e-16
3988.7704    1.8830e-16
3989.7894    1.9369e-16
3990.8084    1.8737e-16
3991.8275    1.8277e-16
3992.8465    1.9235e-16
3993.8655    1.7929e-16
3994.8846    1.7352e-16
3995.9036    1.8682e-16
3996.9226    1.9408e-16
3997.9417    1.8951e-16
3998.9607    1.8326e-16
3999.9797    1.8863e-16
4000.9988    1.8646e-16
4002.0178    1.8294e-16
4003.0368    1.9589e-16
4004.0559    1.9369e-16
4005.0749    1.8805e-16
4006.0939    1.8559e-16
4007.1130    1.8575e-16
4008.1320    1.7690e-16
4009.1511    1.8183e-16
4010.1701    1.7975e-16
4011.1891    1.8570e-16
4012.2082    1.8304e-16
4013.2272    1.8644e-16
4014.2462    1.8886e-16
4015.2653    1.7591e-16
4016.2843    1.9653e-16
4017.3033    1.9850e-16
4018.3224    1.8825e-16
4019.3414    1.8701e-16
4020.3604    1.8316e-16
4021.3795    1.7513e-16
4022.3985    1.8803e-16
4023.4175    1.9181e-16
4024.4366    1.8237e-16
4025.4556    1.8579e-16
4026.4746    1.8212e-16
4027.4937    1.9161e-16
4028.5127    1.9368e-16
4029.5317    1.9409e-16
4030.5508    1.8526e-16
4031.5698    1.7662e-16
4032.5888    1.7913e-16
4033.6079    1.7452e-16
4034.6269    1.7494e-16
4035.6459    1.7645e-16
4036.6650    1.7467e-16
4037.6840    1.7152e-16
4038.7031    1.6531e-16
4039.7221    1.7760e-16
4040.7411    1.9103e-16
4041.7602    1.9564e-16
4042.7792    1.8678e-16
4043.7982    1.8544e-16
4044.8173    1.9250e-16
4045.8363    1.9472e-16
4046.8553    1.8724e-16
4047.8744    1.8633e-16
4048.8934    1.8823e-16
4049.9124    1.8195e-16
4050.9315    1.8466e-16
4051.9505    1.8301e-16
4052.9695    1.7733e-16
4053.9886    1.7067e-16
4055.0076    1.7780e-16
4056.0266    2.0239e-16
4057.0457    1.9035e-16
4058.0647    1.9675e-16
4059.0837    1.9194e-16
4060.1028    1.8683e-16
4061.1218    1.9673e-16
4062.1408    1.8790e-16
4063.1599    1.9019e-16
4064.1789    1.8559e-16
4065.1979    1.9148e-16
4066.2170    1.8979e-16
4067.2360    1.8449e-16
4068.2551    1.9087e-16
4069.2741    1.9206e-16
4070.2931    1.8899e-16
4071.3122    1.8900e-16
4072.3312    1.9875e-16
4073.3502    1.9294e-16
4074.3693    1.8661e-16
4075.3883    1.8559e-16
4076.4073    1.8926e-16
4077.4264    1.8171e-16
4078.4454    1.7535e-16
4079.4644    1.7572e-16
4080.4835    1.7343e-16
4081.5025    1.7877e-16
4082.5215    1.7621e-16
4083.5406    1.8197e-16
4084.5596    1.9436e-16
4085.5786    1.9794e-16
4086.5977    1.9167e-16
4087.6167    1.7143e-16
4088.6357    1.6895e-16
4089.6548    1.8899e-16
4090.6738    1.8354e-16
4091.6928    1.7973e-16
4092.7119    1.7244e-16
4093.7309    1.8083e-16
4094.7499    1.7526e-16
4095.7690    1.7671e-16
4096.7880    1.8059e-16
4097.8071    1.7833e-16
4098.8261    1.9016e-16
4099.8451    1.9094e-16
4100.8642    1.9738e-16
4101.8832    1.9892e-16
4102.9022    1.8291e-16
4103.9213    1.6786e-16
4104.9403    1.8071e-16
4105.9593    1.7704e-16
4106.9784    1.8365e-16
4107.9974    1.8721e-16
4109.0164    1.8341e-16
4110.0355    1.8035e-16
4111.0545    1.8985e-16
4112.0735    1.8401e-16
4113.0926    1.8017e-16
4114.1116    1.8325e-16
4115.1306    1.8619e-16
4116.1497    1.8039e-16
4117.1687    1.8117e-16
4118.1877    1.8169e-16
4119.2068    1.8554e-16
4120.2258    1.8790e-16
4121.2448    1.7495e-16
4122.2639    1.7316e-16
4123.2829    1.7970e-16
4124.3020    1.8408e-16
4125.3210    1.8978e-16
4126.3400    1.8082e-16
4127.3591    1.7100e-16
4128.3781    1.7190e-16
4129.3971    1.6765e-16
4130.4162    1.8785e-16
4131.4352    1.9221e-16
4132.4542    1.8586e-16
4133.4733    1.7864e-16
4134.4923    1.7540e-16
4135.5113    1.8203e-16
4136.5304    1.7600e-16
4137.5494    1.7196e-16
4138.5684    1.8259e-16
4139.5875    1.8379e-16
4140.6065    1.8333e-16
4141.6255    1.8928e-16
4142.6446    1.7741e-16
4143.6636    1.7253e-16
4144.6826    1.8318e-16
4145.7017    1.7748e-16
4146.7207    1.7761e-16
4147.7397    1.8366e-16
4148.7588    1.8495e-16
4149.7778    1.8457e-16
4150.7968    1.8331e-16
4151.8159    1.8395e-16
4152.8349    1.7464e-16
4153.8540    1.7575e-16
4154.8730    1.7028e-16
4155.8920    1.7639e-16
4156.9111    1.7223e-16
4157.9301    1.8878e-16
4158.9491    1.8498e-16
4159.9682    1.7868e-16
4160.9872    1.7806e-16
4162.0062    1.6528e-16
4163.0253    1.6482e-16
4164.0443    1.7018e-16
4165.0633    1.7645e-16
4166.0824    1.7290e-16
4167.1014    1.7754e-16
4168.1204    1.8270e-16
4169.1395    1.7645e-16
4170.1585    1.7436e-16
4171.1775    1.7302e-16
4172.1966    1.7319e-16
4173.2156    1.7887e-16
4174.2346    1.7309e-16
4175.2537    1.8722e-16
4176.2727    1.9047e-16
4177.2917    1.8061e-16
4178.3108    1.8084e-16
4179.3298    1.7872e-16
4180.3488    1.8357e-16
4181.3679    1.8561e-16
4182.3869    1.7523e-16
4183.4060    1.8297e-16
4184.4250    1.9190e-16
4185.4440    1.7168e-16
4186.4631    1.6008e-16
4187.4821    1.6493e-16
4188.5011    1.6756e-16
4189.5202    1.7493e-16
4190.5392    1.7258e-16
4191.5582    1.7702e-16
4192.5773    1.7507e-16
4193.5963    1.7925e-16
4194.6153    1.8363e-16
4195.6344    1.6833e-16
4196.6534    1.6710e-16
4197.6724    1.8387e-16
4198.6915    1.8122e-16
4199.7105    1.7709e-16
4200.7295    1.8626e-16
4201.7486    1.8368e-16
4202.7676    1.7503e-16
4203.7866    1.7393e-16
4204.8057    1.7755e-16
4205.8247    1.8145e-16
4206.8437    1.7779e-16
4207.8628    1.8444e-16
4208.8818    1.8391e-16
4209.9008    1.7862e-16
4210.9199    1.6547e-16
4211.9389    1.6944e-16
4212.9580    1.7454e-16
4213.9770    1.7682e-16
4214.9960    1.7083e-16
4216.0151    1.8045e-16
4217.0341    1.8388e-16
4218.0531    1.8816e-16
4219.0722    1.7843e-16
4220.0912    1.8719e-16
4221.1102    1.8868e-16
4222.1293    1.7132e-16
4223.1483    1.6336e-16
4224.1673    1.7614e-16
4225.1864    1.8183e-16
4226.2054    1.6515e-16
4227.2244    1.6511e-16
4228.2435    1.6510e-16
4229.2625    1.8256e-16
4230.2815    1.8673e-16
4231.3006    1.8262e-16
4232.3196    1.8419e-16
4233.3386    1.8169e-16
4234.3577    1.7503e-16
4235.3767    1.7541e-16
4236.3957    1.7550e-16
4237.4148    1.7790e-16
4238.4338    1.8117e-16
4239.4528    1.6737e-16
4240.4719    1.6822e-16
4241.4909    1.7894e-16
4242.5100    1.8207e-16
4243.5290    1.7810e-16
4244.5480    1.6833e-16
4245.5671    1.6529e-16
4246.5861    1.6836e-16
4247.6051    1.6767e-16
4248.6242    1.6848e-16
4249.6432    1.6244e-16
4250.6622    1.6755e-16
4251.6813    1.7057e-16
4252.7003    1.6851e-16
4253.7193    1.7601e-16
4254.7384    1.8010e-16
4255.7574    1.7181e-16
4256.7764    1.6903e-16
4257.7955    1.6969e-16
4258.8145    1.6975e-16
4259.8335    1.6863e-16
4260.8526    1.6977e-16
4261.8716    1.7395e-16
4262.8906    1.6862e-16
4263.9097    1.7146e-16
4264.9287    1.7516e-16
4265.9477    1.7616e-16
4266.9668    1.7715e-16
4267.9858    1.7914e-16
4269.0048    1.8235e-16
4270.0239    1.7450e-16
4271.0429    1.8348e-16
4272.0620    1.7100e-16
4273.0810    1.6881e-16
4274.1000    1.7083e-16
4275.1191    1.8057e-16
4276.1381    1.6913e-16
4277.1571    1.7238e-16
4278.1762    1.9012e-16
4279.1952    1.8017e-16
4280.2142    1.7654e-16
4281.2333    1.8110e-16
4282.2523    1.9019e-16
4283.2713    1.9283e-16
4284.2904    1.9454e-16
4285.3094    1.9046e-16
4286.3284    2.0097e-16
4287.3475    2.0174e-16
4288.3665    1.9053e-16
4289.3855    1.7651e-16
4290.4046    1.7648e-16
4291.4236    1.7861e-16
4292.4426    1.7848e-16
4293.4617    1.8668e-16
4294.4807    1.8279e-16
4295.4997    1.7303e-16
4296.5188    1.7269e-16
4297.5378    1.7851e-16
4298.5568    1.7672e-16
4299.5759    1.8311e-16
4300.5949    1.9580e-16
4301.6140    1.9303e-16
4302.6330    1.7852e-16
4303.6520    1.7906e-16
4304.6711    1.8533e-16
4305.6901    1.8044e-16
4306.7091    1.7409e-16
4307.7282    1.6950e-16
4308.7472    1.6289e-16
4309.7662    1.6699e-16
4310.7853    1.7306e-16
4311.8043    1.6976e-16
4312.8233    1.7633e-16
4313.8424    1.6922e-16
4314.8614    1.7085e-16
4315.8804    1.7441e-16
4316.8995    1.6896e-16
4317.9185    1.8378e-16
4318.9375    1.7753e-16
4319.9566    1.7475e-16
4320.9756    1.6047e-16
4321.9946    1.6899e-16
4323.0137    1.7137e-16
4324.0327    1.6462e-16
4325.0517    1.4835e-16
4326.0708    1.5021e-16
4327.0898    1.6151e-16
4328.1089    1.7267e-16
4329.1279    1.6941e-16
4330.1469    1.6761e-16
4331.1660    1.7620e-16
4332.1850    1.8092e-16
4333.2040    1.7297e-16
4334.2231    1.6049e-16
4335.2421    1.7061e-16
4336.2611    1.7740e-16
4337.2802    1.7557e-16
4338.2992    1.7519e-16
4339.3182    1.7806e-16
4340.3373    1.8028e-16
4341.3563    1.7762e-16
4342.3753    1.7058e-16
4343.3944    1.6378e-16
4344.4134    1.6638e-16
4345.4324    1.7415e-16
4346.4515    1.7377e-16
4347.4705    1.7804e-16
4348.4895    1.8492e-16
4349.5086    1.8335e-16
4350.5276    1.7922e-16
4351.5466    1.7379e-16
4352.5657    1.6835e-16
4353.5847    1.7095e-16
4354.6037    1.6722e-16
4355.6228    1.5077e-16
4356.6418    1.4943e-16
4357.6609    1.6537e-16
4358.6799    1.6803e-16
4359.6989    1.7089e-16
4360.7180    1.7641e-16
4361.7370    1.6482e-16
4362.7560    1.5786e-16
4363.7751    1.6521e-16
4364.7941    1.6918e-16
4365.8131    1.6186e-16
4366.8322    1.6124e-16
4367.8512    1.6236e-16
4368.8702    1.6681e-16
4369.8893    1.6507e-16
4370.9083    1.7187e-16
4371.9273    1.7952e-16
4372.9464    1.6723e-16
4373.9654    1.6604e-16
4374.9844    1.7178e-16
4376.0035    1.7585e-16
4377.0225    1.8424e-16
4378.0415    1.7083e-16
4379.0606    1.6509e-16
4380.0796    1.7223e-16
4381.0986    1.7455e-16
4382.1177    1.7195e-16
4383.1367    1.6749e-16
4384.1557    1.6981e-16
4385.1748    1.7316e-16
4386.1938    1.7120e-16
4387.2129    1.7178e-16
4388.2319    1.7856e-16
4389.2509    1.6982e-16
4390.2700    1.6408e-16
4391.2890    1.6645e-16
4392.3080    1.6423e-16
4393.3271    1.5111e-16
4394.3461    1.5246e-16
4395.3651    1.5447e-16
4396.3842    1.4720e-16
4397.4032    1.5022e-16
4398.4222    1.6838e-16
4399.4413    1.7783e-16
4400.4603    1.7472e-16
4401.4793    1.7900e-16
4402.4984    1.7964e-16
4403.5174    1.6788e-16
4404.5364    1.6813e-16
4405.5555    1.6441e-16
4406.5745    1.7018e-16
4407.5935    1.6443e-16
4408.6126    1.6050e-16
4409.6316    1.6152e-16
4410.6506    1.7900e-16
4411.6697    1.7404e-16
4412.6887    1.6394e-16
4413.7077    1.5871e-16
4414.7268    1.6534e-16
4415.7458    1.7221e-16
4416.7649    1.6207e-16
4417.7839    1.6305e-16
4418.8029    1.7047e-16
4419.8220    1.6867e-16
4420.8410    1.5822e-16
4421.8600    1.6685e-16
4422.8791    1.7352e-16
4423.8981    1.7486e-16
4424.9171    1.6811e-16
4425.9362    1.6712e-16
4426.9552    1.7077e-16
4427.9742    1.6238e-16
4428.9933    1.6627e-16
4430.0123    1.6566e-16
4431.0313    1.7661e-16
4432.0504    1.7186e-16
4433.0694    1.6868e-16
4434.0884    1.6665e-16
4435.1075    1.6189e-16
4436.1265    1.6511e-16
4437.1455    1.5759e-16
4438.1646    1.5936e-16
4439.1836    1.6346e-16
4440.2026    1.7009e-16
4441.2217    1.6537e-16
4442.2407    1.6012e-16
4443.2597    1.6344e-16
4444.2788    1.6383e-16
4445.2978    1.5664e-16
4446.3169    1.6060e-16
4447.3359    1.6588e-16
4448.3549    1.5723e-16
4449.3740    1.6068e-16
4450.3930    1.6099e-16
4451.4120    1.5373e-16
4452.4311    1.5492e-16
4453.4501    1.6659e-16
4454.4691    1.6995e-16
4455.4882    1.6727e-16
4456.5072    1.6807e-16
4457.5262    1.6360e-16
4458.5453    1.6096e-16
4459.5643    1.6318e-16
4460.5833    1.5965e-16
4461.6024    1.5397e-16
4462.6214    1.5906e-16
4463.6404    1.6767e-16
4464.6595    1.7010e-16
4465.6785    1.7072e-16
4466.6975    1.6162e-16
4467.7166    1.6298e-16
4468.7356    1.6759e-16
4469.7546    1.6798e-16
4470.7737    1.7191e-16
4471.7927    1.7417e-16
4472.8117    1.7610e-16
4473.8308    1.7189e-16
4474.8498    1.6224e-16
4475.8689    1.6395e-16
4476.8879    1.6889e-16
4477.9069    1.6633e-16
4478.9260    1.6256e-16
4479.9450    1.6244e-16
4480.9640    1.6400e-16
4481.9831    1.6105e-16
4483.0021    1.6537e-16
4484.0211    1.5694e-16
4485.0402    1.6259e-16
4486.0592    1.6238e-16
4487.0782    1.6804e-16
4488.0973    1.6714e-16
4489.1163    1.6293e-16
4490.1353    1.5748e-16
4491.1544    1.5209e-16
4492.1734    1.5187e-16
4493.1924    1.6285e-16
4494.2115    1.6086e-16
4495.2305    1.6173e-16
4496.2495    1.6994e-16
4497.2686    1.7135e-16
4498.2876    1.6731e-16
4499.3066    1.6951e-16
4500.3257    1.7304e-16
4501.3447    1.6598e-16
4502.3637    1.7200e-16
4503.3828    1.7151e-16
4504.4018    1.7346e-16
4505.4209    1.6411e-16
4506.4399    1.5277e-16
4507.4589    1.5401e-16
4508.4780    1.6362e-16
4509.4970    1.5700e-16
4510.5160    1.5216e-16
4511.5351    1.6798e-16
4512.5541    1.6939e-16
4513.5731    1.6729e-16
4514.5922    1.6705e-16
4515.6112    1.6374e-16
4516.6302    1.5807e-16
4517.6493    1.6237e-16
4518.6683    1.6931e-16
4519.6873    1.6792e-16
4520.7064    1.6234e-16
4521.7254    1.5783e-16
4522.7444    1.5592e-16
4523.7635    1.5406e-16
4524.7825    1.5387e-16
4525.8015    1.5884e-16
4526.8206    1.6199e-16
4527.8396    1.6161e-16
4528.8586    1.6661e-16
4529.8777    1.7561e-16
4530.8967    1.7230e-16
4531.9158    1.6353e-16
4532.9348    1.6512e-16
4533.9538    1.7104e-16
4534.9729    1.7318e-16
4535.9919    1.7763e-16
4537.0109    1.8045e-16
4538.0300    1.7703e-16
4539.0490    1.6624e-16
4540.0680    1.7504e-16
4541.0871    1.7354e-16
4542.1061    1.6186e-16
4543.1251    1.6823e-16
4544.1442    1.7199e-16
4545.1632    1.8297e-16
4546.1822    1.9471e-16
4547.2013    1.8081e-16
4548.2203    1.6006e-16
4549.2393    1.6447e-16
4550.2584    1.6546e-16
4551.2774    1.6771e-16
4552.2964    1.6304e-16
4553.3155    1.7322e-16
4554.3345    1.6816e-16
4555.3535    1.7408e-16
4556.3726    1.6173e-16
4557.3916    1.7093e-16
4558.4106    1.6871e-16
4559.4297    1.7184e-16
4560.4487    1.8404e-16
4561.4678    1.8605e-16
4562.4868    1.7593e-16
4563.5058    1.6404e-16
4564.5249    1.6114e-16
4565.5439    1.5245e-16
4566.5629    1.5099e-16
4567.5820    1.5483e-16
4568.6010    1.6841e-16
4569.6200    1.6352e-16
4570.6391    1.6002e-16
4571.6581    1.6766e-16
4572.6771    1.5596e-16
4573.6962    1.5196e-16
4574.7152    1.5682e-16
4575.7342    1.5225e-16
4576.7533    1.4830e-16
4577.7723    1.5095e-16
4578.7913    1.6044e-16
4579.8104    1.6908e-16
4580.8294    1.5893e-16
4581.8484    1.5794e-16
4582.8675    1.5824e-16
4583.8865    1.5933e-16
4584.9055    1.5588e-16
4585.9246    1.6110e-16
4586.9436    1.5983e-16
4587.9626    1.5710e-16
4588.9817    1.5377e-16
4590.0007    1.5705e-16
4591.0198    1.6707e-16
4592.0388    1.6982e-16
4593.0578    1.6846e-16
4594.0769    1.6045e-16
4595.0959    1.5573e-16
4596.1149    1.5786e-16
4597.1340    1.5469e-16
4598.1530    1.5576e-16
4599.1720    1.6867e-16
4600.1911    1.6586e-16
4601.2101    1.5995e-16
4602.2291    1.6672e-16
4603.2482    1.6878e-16
4604.2672    1.6427e-16
4605.2862    1.5740e-16
4606.3053    1.5731e-16
4607.3243    1.6693e-16
4608.3433    1.7003e-16
4609.3624    1.5341e-16
4610.3814    1.5818e-16
4611.4004    1.6738e-16
4612.4195    1.6439e-16
4613.4385    1.5922e-16
4614.4575    1.5868e-16
4615.4766    1.5921e-16
4616.4956    1.5809e-16
4617.5146    1.5597e-16
4618.5337    1.5800e-16
4619.5527    1.5951e-16
4620.5718    1.6651e-16
4621.5908    1.5788e-16
4622.6098    1.5415e-16
4623.6289    1.4251e-16
4624.6479    1.4974e-16
4625.6669    1.5847e-16
4626.6860    1.5436e-16
4627.7050    1.6022e-16
4628.7240    1.7589e-16
4629.7431    1.6056e-16
4630.7621    1.5036e-16
4631.7811    1.5132e-16
4632.8002    1.5456e-16
4633.8192    1.6025e-16
4634.8382    1.6325e-16
4635.8573    1.5226e-16
4636.8763    1.5588e-16
4637.8953    1.5889e-16
4638.9144    1.5111e-16
4639.9334    1.4032e-16
4640.9524    1.5477e-16
4641.9715    1.4987e-16
4642.9905    1.4774e-16
4644.0095    1.4103e-16
4645.0286    1.5387e-16
4646.0476    1.6149e-16
4647.0666    1.4869e-16
4648.0857    1.4921e-16
4649.1047    1.5591e-16
4650.1238    1.6695e-16
4651.1428    1.7435e-16
4652.1618    1.7354e-16
4653.1809    1.6203e-16
4654.1999    1.6440e-16
4655.2189    1.7356e-16
4656.2380    1.7771e-16
4657.2570    1.8203e-16
4658.2760    1.8398e-16
4659.2951    1.7807e-16
4660.3141    1.8290e-16
4661.3331    2.1043e-16
4662.3522    1.7318e-16
4663.3712    1.5024e-16
4664.3902    1.5784e-16
4665.4093    1.5666e-16
4666.4283    1.3405e-16
4667.4473    1.3631e-16
4668.4664    1.6236e-16
4669.4854    1.5298e-16
4670.5044    1.6317e-16
4671.5235    1.6666e-16
4672.5425    1.6246e-16
4673.5615    1.4908e-16
4674.5806    1.4850e-16
4675.5996    1.6223e-16
4676.6186    1.4187e-16
4677.6377    1.4317e-16
4678.6567    1.6093e-16
4679.6758    1.7009e-16
4680.6948    1.6939e-16
4681.7138    1.5860e-16
4682.7329    1.6795e-16
4683.7519    1.7395e-16
4684.7709    1.7516e-16
4685.7900    1.6656e-16
4686.8090    1.6480e-16
4687.8280    1.6302e-16
4688.8471    1.5033e-16
4689.8661    1.4809e-16
4690.8851    1.5271e-16
4691.9042    1.6128e-16
4692.9232    1.7070e-16
4693.9422    1.6573e-16
4694.9613    1.6167e-16
4695.9803    1.5374e-16
4696.9993    1.5099e-16
4698.0184    1.6189e-16
4699.0374    1.4858e-16
4700.0564    1.4473e-16
4701.0755    1.5785e-16
4702.0945    1.5063e-16
4703.1135    1.5443e-16
4704.1326    1.5919e-16
4705.1516    1.4186e-16
4706.1706    1.4342e-16
4707.1897    1.4777e-16
4708.2087    1.4479e-16
4709.2278    1.3647e-16
4710.2468    1.4479e-16
4711.2658    1.5135e-16
4712.2849    1.5761e-16
4713.3039    1.5272e-16
4714.3229    1.5016e-16
4715.3420    1.6271e-16
4716.3610    1.5646e-16
4717.3800    1.7051e-16
4718.3991    1.6638e-16
4719.4181    1.3591e-16
4720.4371    1.3590e-16
4721.4562    1.4480e-16
4722.4752    1.7361e-16
4723.4942    1.6635e-16
4724.5133    1.6251e-16
4725.5323    1.4254e-16
4726.5513    1.4203e-16
4727.5704    1.4778e-16
4728.5894    1.6304e-16
4729.6084    1.5221e-16
4730.6275    1.6305e-16
4731.6465    1.6531e-16
4732.6655    1.6000e-16
4733.6846    1.4975e-16
4734.7036    1.3889e-16
4735.7226    1.4377e-16
4736.7417    1.6352e-16
4737.7607    1.6065e-16
4738.7798    1.5396e-16
4739.7988    1.4374e-16
4740.8178    1.4075e-16
4741.8369    1.4164e-16
4742.8559    1.5186e-16
4743.8749    1.5338e-16
4744.8940    1.6290e-16
4745.9130    1.6494e-16
4746.9320    1.5244e-16
4747.9511    1.6433e-16
4748.9701    1.7198e-16
4749.9891    1.6812e-16
4751.0082    1.5582e-16
4752.0272    1.4859e-16
4753.0462    1.5581e-16
4754.0653    1.5811e-16
4755.0843    1.5070e-16
4756.1033    1.4947e-16
4757.1224    1.4923e-16
4758.1414    1.4616e-16
4759.1604    1.5285e-16
4760.1795    1.6110e-16
4761.1985    1.6540e-16
4762.2175    1.5845e-16
4763.2366    1.4996e-16
4764.2556    1.4619e-16
4765.2747    1.4786e-16
4766.2937    1.6139e-16
4767.3127    1.4458e-16
4768.3318    1.4435e-16
4769.3508    1.5387e-16
4770.3698    1.5084e-16
4771.3889    1.4847e-16
4772.4079    1.6946e-16
4773.4269    1.6937e-16
4774.4460    1.5079e-16
4775.4650    1.4593e-16
4776.4840    1.5225e-16
4777.5031    1.7473e-16
4778.5221    1.6128e-16
4779.5411    1.5446e-16
4780.5602    1.5565e-16
4781.5792    1.4741e-16
4782.5982    1.5467e-16
4783.6173    1.5174e-16
4784.6363    1.5718e-16
4785.6553    1.4316e-16
4786.6744    1.4268e-16
4787.6934    1.5596e-16
4788.7124    1.5618e-16
4789.7315    1.5208e-16
4790.7505    1.4919e-16
4791.7695    1.4800e-16
4792.7886    1.6346e-16
4793.8076    1.5649e-16
4794.8267    1.4887e-16
4795.8457    1.5629e-16
4796.8647    1.7568e-16
4797.8838    1.6751e-16
4798.9028    1.5950e-16
4799.9218    1.5364e-16
4800.9409    1.4452e-16
4801.9599    1.4453e-16
4802.9789    1.5221e-16
4803.9980    1.5761e-16
4805.0170    1.5729e-16
4806.0360    1.5397e-16
4807.0551    1.3765e-16
4808.0741    1.4094e-16
4809.0931    1.5143e-16
4810.1122    1.4131e-16
4811.1312    1.5599e-16
4812.1502    1.4853e-16
4813.1693    1.5010e-16
4814.1883    1.5705e-16
4815.2073    1.4689e-16
4816.2264    1.4473e-16
4817.2454    1.5712e-16
4818.2644    1.4321e-16
4819.2835    1.5072e-16
4820.3025    1.5291e-16
4821.3215    1.5508e-16
4822.3406    1.6664e-16
4823.3596    1.5039e-16
4824.3787    1.4469e-16
4825.3977    1.5491e-16
4826.4167    1.6313e-16
4827.4358    1.5713e-16
4828.4548    1.5376e-16
4829.4738    1.6057e-16
4830.4929    1.5473e-16
4831.5119    1.6577e-16
4832.5309    1.6236e-16
4833.5500    1.6348e-16
4834.5690    1.6180e-16
4835.5880    1.8080e-16
4836.6071    1.6235e-16
4837.6261    1.4723e-16
4838.6451    1.5383e-16
4839.6642    1.4913e-16
4840.6832    1.6451e-16
4841.7022    1.6502e-16
4842.7213    1.6451e-16
4843.7403    1.6769e-16
4844.7593    1.6107e-16
4845.7784    1.4998e-16
4846.7974    1.6618e-16
4847.8164    1.7549e-16
4848.8355    1.7692e-16
4849.8545    1.6567e-16
4850.8735    1.5998e-16
4851.8926    1.7135e-16
4852.9116    1.6580e-16
4853.9307    1.5057e-16
4854.9497    1.5520e-16
4855.9687    1.5231e-16
4856.9878    1.4988e-16
4858.0068    1.4580e-16
4859.0258    1.5664e-16
4860.0449    1.5958e-16
4861.0639    1.5594e-16
4862.0829    1.5302e-16
4863.1020    1.5069e-16
4864.1210    1.5067e-16
4865.1400    1.6004e-16
4866.1591    1.6036e-16
4867.1781    1.4641e-16
4868.1971    1.5469e-16
4869.2162    1.5667e-16
4870.2352    1.5240e-16
4871.2542    1.4752e-16
4872.2733    1.5434e-16
4873.2923    1.5622e-16
4874.3113    1.5977e-16
4875.3304    1.5898e-16
4876.3494    1.6141e-16
4877.3684    1.5785e-16
4878.3875    1.6378e-16
4879.4065    1.6783e-16
4880.4255    1.6233e-16
4881.4446    1.6043e-16
4882.4636    1.5411e-16
4883.4827    1.5183e-16
4884.5017    1.5647e-16
4885.5207    1.4972e-16
4886.5398    1.5717e-16
4887.5588    1.6926e-16
4888.5778    1.6687e-16
4889.5969    1.5937e-16
4890.6159    1.4670e-16
4891.6349    1.5569e-16
4892.6540    1.5590e-16
4893.6730    1.4891e-16
4894.6920    1.5470e-16
4895.7111    1.6096e-16
4896.7301    1.5243e-16
4897.7491    1.6200e-16
4898.7682    1.7162e-16
4899.7872    1.6676e-16
4900.8062    1.5330e-16
4901.8253    1.5083e-16
4902.8443    1.5692e-16
4903.8633    1.5699e-16
4904.8824    1.3760e-16
4905.9014    1.4825e-16
4906.9204    1.5061e-16
4907.9395    1.5370e-16
4908.9585    1.4955e-16
4909.9775    1.4170e-16
4910.9966    1.5247e-16
4912.0156    1.5061e-16
4913.0347    1.5066e-16
4914.0537    1.4496e-16
4915.0727    1.4261e-16
4916.0918    1.4542e-16
4917.1108    1.5273e-16
4918.1298    1.5235e-16
4919.1489    1.4411e-16
4920.1679    1.3906e-16
4921.1869    1.3677e-16
4922.2060    1.4807e-16
4923.2250    1.3931e-16
4924.2440    1.3954e-16
4925.2631    1.4322e-16
4926.2821    1.4042e-16
4927.3011    1.4122e-16
4928.3202    1.4613e-16
4929.3392    1.4392e-16
4930.3582    1.4735e-16
4931.3773    1.3686e-16
4932.3963    1.3943e-16
4933.4153    1.4343e-16
4934.4344    1.3912e-16
4935.4534    1.3274e-16
4936.4724    1.3239e-16
4937.4915    1.3922e-16
4938.5105    1.4142e-16
4939.5296    1.3404e-16
4940.5486    1.4286e-16
4941.5676    1.3318e-16
4942.5867    1.3605e-16
4943.6057    1.3968e-16
4944.6247    1.4133e-16
4945.6438    1.4378e-16
4946.6628    1.4356e-16
4947.6818    1.3366e-16
4948.7009    1.2939e-16
4949.7199    1.3343e-16
4950.7389    1.4516e-16
4951.7580    1.3579e-16
4952.7770    1.3465e-16
4953.7960    1.3033e-16
4954.8151    1.3327e-16
4955.8341    1.3567e-16
4956.8531    1.3712e-16
4957.8722    1.3251e-16
4958.8912    1.3098e-16
4959.9102    1.3588e-16
4960.9293    1.3228e-16
4961.9483    1.3025e-16
4962.9673    1.2942e-16
4963.9864    1.3590e-16
4965.0054    1.3773e-16
4966.0244    1.3721e-16
4967.0435    1.3757e-16
4968.0625    1.3097e-16
4969.0816    1.3130e-16
4970.1006    1.4033e-16
4971.1196    1.4046e-16
4972.1387    1.3716e-16
4973.1577    1.4030e-16
4974.1767    1.4000e-16
4975.1958    1.3642e-16
4976.2148    1.3503e-16
4977.2338    1.3113e-16
4978.2529    1.2403e-16
4979.2719    1.3133e-16
4980.2909    1.4180e-16
4981.3100    1.3830e-16
4982.3290    1.3703e-16
4983.3480    1.3409e-16
4984.3671    1.3706e-16
4985.3861    1.3669e-16
4986.4051    1.2746e-16
4987.4242    1.3069e-16
4988.4432    1.3047e-16
4989.4622    1.2189e-16
4990.4813    1.2629e-16
4991.5003    1.2951e-16
4992.5193    1.2746e-16
4993.5384    1.2820e-16
4994.5574    1.3231e-16
4995.5764    1.2548e-16
4996.5955    1.1803e-16
4997.6145    1.2319e-16
4998.6336    1.3056e-16
4999.6526    1.3311e-16
5000.6716    1.3212e-16
5001.6907    1.3142e-16
5002.7097    1.3163e-16
5003.7287    1.3266e-16
5004.7478    1.3439e-16
5005.7668    1.2789e-16
5006.7858    1.3217e-16
5007.8049    1.3189e-16
5008.8239    1.2842e-16
5009.8429    1.2744e-16
5010.8620    1.2552e-16
5011.8810    1.2959e-16
5012.9000    1.3150e-16
5013.9191    1.2524e-16
5014.9381    1.1964e-16
5015.9571    1.2198e-16
5016.9762    1.2234e-16
5017.9952    1.2575e-16
5019.0142    1.2577e-16
5020.0333    1.2548e-16
5021.0523    1.2099e-16
5022.0713    1.2659e-16
5023.0904    1.3208e-16
5024.1094    1.3587e-16
5025.1284    1.2929e-16
5026.1475    1.2396e-16
5027.1665    1.2148e-16
5028.1856    1.2850e-16
5029.2046    1.3041e-16
5030.2236    1.3384e-16
5031.2427    1.2369e-16
5032.2617    1.2414e-16
5033.2807    1.2237e-16
5034.2998    1.3339e-16
5035.3188    1.2854e-16
5036.3378    1.3376e-16
5037.3569    1.2951e-16
5038.3759    1.2099e-16
5039.3949    1.3261e-16
5040.4140    1.2736e-16
5041.4330    1.2383e-16
5042.4520    1.2627e-16
5043.4711    1.2766e-16
5044.4901    1.3108e-16
5045.5091    1.3057e-16
5046.5282    1.2721e-16
5047.5472    1.2673e-16
5048.5662    1.2637e-16
5049.5853    1.2612e-16
5050.6043    1.2614e-16
5051.6233    1.3988e-16
5052.6424    1.3146e-16
5053.6614    1.1983e-16
5054.6804    1.2679e-16
5055.6995    1.2571e-16
5056.7185    1.3441e-16
5057.7376    1.3783e-16
5058.7566    1.3137e-16
5059.7756    1.2767e-16
5060.7947    1.2406e-16
5061.8137    1.3303e-16
5062.8327    1.3196e-16
5063.8518    1.2376e-16
5064.8708    1.1877e-16
5065.8898    1.3410e-16
5066.9089    1.3681e-16
5067.9279    1.2430e-16
5068.9469    1.3271e-16
5069.9660    1.3631e-16
5070.9850    1.3256e-16
5072.0040    1.3048e-16
5073.0231    1.3202e-16
5074.0421    1.3107e-16
5075.0611    1.4852e-16
5076.0802    1.3644e-16
5077.0992    1.4156e-16
5078.1182    1.4896e-16
5079.1373    1.5193e-16
5080.1563    1.6207e-16
5081.1753    1.6257e-16
5082.1944    1.5541e-16
5083.2134    1.4539e-16
5084.2324    1.3405e-16
5085.2515    1.2975e-16
5086.2705    1.3170e-16
5087.2896    1.4120e-16
5088.3086    1.2862e-16
5089.3276    1.3022e-16
5090.3467    1.3635e-16
5091.3657    1.3939e-16
5092.3847    1.2649e-16
5093.4038    1.2817e-16
5094.4228    1.2638e-16
5095.4418    1.2709e-16
5096.4609    1.4312e-16
5097.4799    1.3143e-16
5098.4989    1.3369e-16
5099.5180    1.3819e-16
5100.5370    1.3462e-16
5101.5560    1.3141e-16
5102.5751    1.2098e-16
5103.5941    1.1879e-16
5104.6131    1.1860e-16
5105.6322    1.3085e-16
5106.6512    1.2915e-16
5107.6702    1.2157e-16
5108.6893    1.2569e-16
5109.7083    1.2915e-16
5110.7273    1.2881e-16
5111.7464    1.3015e-16
5112.7654    1.2632e-16
5113.7844    1.2547e-16
5114.8035    1.3148e-16
5115.8225    1.2687e-16
5116.8416    1.2188e-16
5117.8606    1.2256e-16
5118.8796    1.2732e-16
5119.8987    1.2460e-16
5120.9177    1.2581e-16
5121.9367    1.1955e-16
5122.9558    1.2408e-16
5123.9748    1.2153e-16
5124.9938    1.2763e-16
5126.0129    1.2178e-16
5127.0319    1.2212e-16
5128.0509    1.1908e-16
5129.0700    1.1591e-16
5130.0890    1.2075e-16
5131.1080    1.1733e-16
5132.1271    1.2268e-16
5133.1461    1.2409e-16
5134.1651    1.2789e-16
5135.1842    1.2980e-16
5136.2032    1.3062e-16
5137.2222    1.2820e-16
5138.2413    1.2351e-16
5139.2603    1.1988e-16
5140.2793    1.2875e-16
5141.2984    1.3112e-16
5142.3174    1.3200e-16
5143.3365    1.2989e-16
5144.3555    1.2685e-16
5145.3745    1.2081e-16
5146.3936    1.1905e-16
5147.4126    1.2390e-16
5148.4316    1.2663e-16
5149.4507    1.2905e-16
5150.4697    1.2355e-16
5151.4887    1.2044e-16
5152.5078    1.1971e-16
5153.5268    1.1880e-16
5154.5458    1.2928e-16
5155.5649    1.2339e-16
5156.5839    1.2624e-16
5157.6029    1.2274e-16
5158.6220    1.2434e-16
5159.6410    1.2719e-16
5160.6600    1.2276e-16
5161.6791    1.2102e-16
5162.6981    1.2352e-16
5163.7171    1.1768e-16
5164.7362    1.2174e-16
5165.7552    1.2625e-16
5166.7742    1.2728e-16
5167.7933    1.2208e-16
5168.8123    1.2527e-16
5169.8313    1.3100e-16
5170.8504    1.2781e-16
5171.8694    1.2427e-16
5172.8885    1.2226e-16
5173.9075    1.2093e-16
5174.9265    1.2125e-16
5175.9456    1.2563e-16
5176.9646    1.2571e-16
5177.9836    1.2073e-16
5179.0027    1.2209e-16
5180.0217    1.2234e-16
5181.0407    1.1978e-16
5182.0598    1.1866e-16
5183.0788    1.2437e-16
5184.0978    1.2721e-16
5185.1169    1.1840e-16
5186.1359    1.1139e-16
5187.1549    1.1074e-16
5188.1740    1.1274e-16
5189.1930    1.1696e-16
5190.2120    1.1798e-16
5191.2311    1.1721e-16
5192.2501    1.2364e-16
5193.2691    1.2413e-16
5194.2882    1.2543e-16
5195.3072    1.2571e-16
5196.3262    1.2156e-16
5197.3453    1.2066e-16
5198.3643    1.2701e-16
5199.3833    1.2271e-16
5200.4024    1.1726e-16
5201.4214    1.1532e-16
5202.4405    1.1427e-16
5203.4595    1.2007e-16
5204.4785    1.1762e-16
5205.4976    1.1885e-16
5206.5166    1.2808e-16
5207.5356    1.2327e-16
5208.5547    1.1660e-16
5209.5737    1.1899e-16
5210.5927    1.1968e-16
5211.6118    1.1336e-16
5212.6308    1.1628e-16
5213.6498    1.2216e-16
5214.6689    1.2338e-16
5215.6879    1.2208e-16
5216.7069    1.1537e-16
5217.7260    1.1462e-16
5218.7450    1.2306e-16
5219.7640    1.1935e-16
5220.7831    1.2247e-16
5221.8021    1.2506e-16
5222.8211    1.1829e-16
5223.8402    1.1891e-16
5224.8592    1.2192e-16
5225.8782    1.2536e-16
5226.8973    1.2222e-16
5227.9163    1.1611e-16
5228.9353    1.1709e-16
5229.9544    1.1874e-16
5230.9734    1.1825e-16
5231.9925    1.2037e-16
5233.0115    1.2418e-16
5234.0305    1.2582e-16
5235.0496    1.2202e-16
5236.0686    1.2188e-16
5237.0876    1.1703e-16
5238.1067    1.1791e-16
5239.1257    1.1819e-16
5240.1447    1.1911e-16
5241.1638    1.1416e-16
5242.1828    1.1275e-16
5243.2018    1.1611e-16
5244.2209    1.1668e-16
5245.2399    1.2021e-16
5246.2589    1.2004e-16
5247.2780    1.1922e-16
5248.2970    1.2079e-16
5249.3160    1.2103e-16
5250.3351    1.1730e-16
5251.3541    1.1598e-16
5252.3731    1.1713e-16
5253.3922    1.1763e-16
5254.4112    1.2050e-16
5255.4302    1.2020e-16
5256.4493    1.1563e-16
5257.4683    1.1555e-16
5258.4873    1.1667e-16
5259.5064    1.1819e-16
5260.5254    1.1697e-16
5261.5445    1.1268e-16
5262.5635    1.1085e-16
5263.5825    1.1469e-16
5264.6016    1.1568e-16
5265.6206    1.1867e-16
5266.6396    1.1846e-16
5267.6587    1.1684e-16
5268.6777    1.1753e-16
5269.6967    1.1900e-16
5270.7158    1.1546e-16
5271.7348    1.2062e-16
5272.7538    1.1938e-16
5273.7729    1.1894e-16
5274.7919    1.1509e-16
5275.8109    1.1273e-16
5276.8300    1.1208e-16
5277.8490    1.1330e-16
5278.8680    1.1770e-16
5279.8871    1.1666e-16
5280.9061    1.1924e-16
5281.9251    1.2025e-16
5282.9442    1.1882e-16
5283.9632    1.1851e-16
5284.9822    1.2028e-16
5286.0013    1.1740e-16
5287.0203    1.1719e-16
5288.0393    1.1547e-16
5289.0584    1.1413e-16
5290.0774    1.2194e-16
5291.0965    1.2593e-16
5292.1155    1.1965e-16
5293.1345    1.1538e-16
5294.1536    1.1686e-16
5295.1726    1.1820e-16
5296.1916    1.2023e-16
5297.2107    1.1619e-16
5298.2297    1.1590e-16
5299.2487    1.1444e-16
5300.2678    1.0982e-16
5301.2868    1.1390e-16
5302.3058    1.1938e-16
5303.3249    1.1636e-16
5304.3439    1.1912e-16
5305.3629    1.1883e-16
5306.3820    1.1677e-16
5307.4010    1.1799e-16
5308.4200    1.1923e-16
5309.4391    1.1806e-16
5310.4581    1.1214e-16
5311.4771    1.1222e-16
5312.4962    1.1636e-16
5313.5152    1.1834e-16
5314.5342    1.2029e-16
5315.5533    1.1304e-16
5316.5723    1.1273e-16
5317.5913    1.1502e-16
5318.6104    1.1296e-16
5319.6294    1.1423e-16
5320.6485    1.1594e-16
5321.6675    1.1683e-16
5322.6865    1.1827e-16
5323.7056    1.1963e-16
5324.7246    1.1712e-16
5325.7436    1.1442e-16
5326.7627    1.1778e-16
5327.7817    1.2144e-16
5328.8007    1.1867e-16
5329.8198    1.1224e-16
5330.8388    1.1146e-16
5331.8578    1.1375e-16
5332.8769    1.1637e-16
5333.8959    1.1833e-16
5334.9149    1.1755e-16
5335.9340    1.1595e-16
5336.9530    1.1629e-16
5337.9720    1.1418e-16
5338.9911    1.1398e-16
5340.0101    1.1568e-16
5341.0291    1.1589e-16
5342.0482    1.1707e-16
5343.0672    1.1353e-16
5344.0862    1.1177e-16
5345.1053    1.1419e-16
5346.1243    1.1572e-16
5347.1434    1.1531e-16
5348.1624    1.1098e-16
5349.1814    1.1289e-16
5350.2005    1.2011e-16
5351.2195    1.1951e-16
5352.2385    1.1615e-16
5353.2576    1.1488e-16
5354.2766    1.2136e-16
5355.2956    1.2105e-16
5356.3147    1.1605e-16
5357.3337    1.1578e-16
5358.3527    1.1161e-16
5359.3718    1.0990e-16
5360.3908    1.1065e-16
5361.4098    1.0929e-16
5362.4289    1.1379e-16
5363.4479    1.1872e-16
5364.4669    1.1729e-16
5365.4860    1.1501e-16
5366.5050    1.1804e-16
5367.5240    1.2254e-16
5368.5431    1.2086e-16
5369.5621    1.1644e-16
5370.5811    1.1300e-16
5371.6002    1.1421e-16
5372.6192    1.1093e-16
5373.6382    1.1204e-16
5374.6573    1.1723e-16
5375.6763    1.1779e-16
5376.6954    1.1652e-16
5377.7144    1.1083e-16
5378.7334    1.1207e-16
5379.7525    1.1561e-16
5380.7715    1.1466e-16
5381.7905    1.1701e-16
5382.8096    1.1795e-16
5383.8286    1.1705e-16
5384.8476    1.1393e-16
5385.8667    1.0931e-16
5386.8857    1.0743e-16
5387.9047    1.0994e-16
5388.9238    1.0978e-16
5389.9428    1.0606e-16
5390.9618    1.0549e-16
5391.9809    1.0920e-16
5392.9999    1.1661e-16
5394.0189    1.1680e-16
5395.0380    1.1321e-16
5396.0570    1.1359e-16
5397.0760    1.1154e-16
5398.0951    1.1398e-16
5399.1141    1.1344e-16
5400.1331    1.1253e-16
5401.1522    1.1065e-16
5402.1712    1.0971e-16
5403.1902    1.1186e-16
5404.2093    1.1236e-16
5405.2283    1.1677e-16
5406.2474    1.1916e-16
5407.2664    1.1511e-16
5408.2854    1.0937e-16
5409.3045    1.1291e-16
5410.3235    1.1477e-16
5411.3425    1.1218e-16
5412.3616    1.1124e-16
5413.3806    1.1014e-16
5414.3996    1.1000e-16
5415.4187    1.1086e-16
5416.4377    1.1467e-16
5417.4567    1.1501e-16
5418.4758    1.1191e-16
5419.4948    1.1409e-16
5420.5138    1.1417e-16
5421.5329    1.1220e-16
5422.5519    1.1453e-16
5423.5709    1.1306e-16
5424.5900    1.1125e-16
5425.6090    1.1229e-16
5426.6280    1.1096e-16
5427.6471    1.0955e-16
5428.6661    1.1197e-16
5429.6851    1.1220e-16
5430.7042    1.1016e-16
5431.7232    1.1082e-16
5432.7422    1.0827e-16
5433.7613    1.0572e-16
5434.7803    1.0836e-16
5435.7994    1.1310e-16
5436.8184    1.1584e-16
5437.8374    1.1359e-16
5438.8565    1.1353e-16
5439.8755    1.1299e-16
5440.8945    1.1153e-16
5441.9136    1.1019e-16
5442.9326    1.0869e-16
5443.9516    1.0874e-16
5444.9707    1.1248e-16
5445.9897    1.1529e-16
5447.0087    1.0894e-16
5448.0278    1.0730e-16
5449.0468    1.0801e-16
5450.0658    1.0778e-16
5451.0849    1.1346e-16
5452.1039    1.0939e-16
5453.1229    1.0679e-16
5454.1420    1.0725e-16
5455.1610    1.0779e-16
5456.1800    1.0493e-16
5457.1991    1.0922e-16
5458.2181    1.1265e-16
5459.2371    1.1231e-16
5460.2562    1.1340e-16
5461.2752    1.1077e-16
5462.2942    1.0986e-16
5463.3133    1.1362e-16
5464.3323    1.0825e-16
5465.3514    1.0737e-16
5466.3704    1.0968e-16
5467.3894    1.1130e-16
5468.4085    1.1053e-16
5469.4275    1.0807e-16
5470.4465    1.0844e-16
5471.4656    1.1090e-16
5472.4846    1.0962e-16
5473.5036    1.0772e-16
5474.5227    1.0756e-16
5475.5417    1.0439e-16
5476.5607    1.0924e-16
5477.5798    1.1261e-16
5478.5988    1.0847e-16
5479.6178    1.0809e-16
5480.6369    1.0865e-16
5481.6559    1.0813e-16
5482.6749    1.0732e-16
5483.6940    1.0991e-16
5484.7130    1.0983e-16
5485.7320    1.0785e-16
5486.7511    1.0684e-16
5487.7701    1.0804e-16
5488.7891    1.0887e-16
5489.8082    1.1130e-16
5490.8272    1.0998e-16
5491.8462    1.0540e-16
5492.8653    1.0836e-16
5493.8843    1.0937e-16
5494.9034    1.1042e-16
5495.9224    1.1093e-16
5496.9414    1.1089e-16
5497.9605    1.1105e-16
5498.9795    1.1180e-16
5499.9985    1.0428e-16
5501.0176    1.0506e-16
5502.0366    1.0595e-16
5503.0556    1.0679e-16
5504.0747    1.0859e-16
5505.0937    1.0999e-16
5506.1127    1.0688e-16
5507.1318    1.0681e-16
5508.1508    1.1004e-16
5509.1698    1.0584e-16
5510.1889    1.0755e-16
5511.2079    1.0872e-16
5512.2269    1.0551e-16
5513.2460    1.0818e-16
5514.2650    1.1372e-16
5515.2840    1.0947e-16
5516.3031    1.0975e-16
5517.3221    1.0785e-16
5518.3411    1.0928e-16
5519.3602    1.1348e-16
5520.3792    1.0761e-16
5521.3982    1.0714e-16
5522.4173    1.0773e-16
5523.4363    1.0819e-16
5524.4554    1.0858e-16
5525.4744    1.0493e-16
5526.4934    1.0329e-16
5527.5125    1.0509e-16
5528.5315    1.0323e-16
5529.5505    1.0192e-16
5530.5696    1.0593e-16
5531.5886    1.0526e-16
5532.6076    1.0353e-16
5533.6267    1.0641e-16
5534.6457    1.0486e-16
5535.6647    1.0703e-16
5536.6838    1.0910e-16
5537.7028    1.0561e-16
5538.7218    1.0487e-16
5539.7409    1.0163e-16
5540.7599    1.0590e-16
5541.7789    1.0444e-16
5542.7980    1.0396e-16
5543.8170    1.0740e-16
5544.8360    1.0650e-16
5545.8551    1.0675e-16
5546.8741    1.0596e-16
5547.8931    1.0188e-16
5548.9122    1.0082e-16
5549.9312    1.0327e-16
5550.9502    1.0667e-16
5551.9693    1.0483e-16
5552.9883    1.0825e-16
5554.0074    1.0816e-16
5555.0264    1.0630e-16
5556.0454    1.0500e-16
5557.0645    1.0192e-16
5558.0835    1.0488e-16
5559.1025    1.0791e-16
5560.1216    1.0185e-16
5561.1406    1.0521e-16
5562.1596    1.0248e-16
5563.1787    1.0169e-16
5564.1977    9.9845e-17
5565.2167    1.0463e-16
5566.2358    1.0145e-16
5567.2548    1.0152e-16
5568.2738    1.0533e-16
5569.2929    1.0562e-16
5570.3119    1.0223e-16
5571.3309    1.0256e-16
5572.3500    1.0344e-16
5573.3690    9.9629e-17
5574.3880    9.6307e-17
5575.4071    9.7796e-17
5576.4261    1.1134e-16
5577.4451    1.0439e-16
5578.4642    1.0833e-16
5579.4832    1.0675e-16
5580.5023    1.0387e-16
5581.5213    9.8980e-17
5582.5403    9.8320e-17
5583.5594    1.0599e-16
5584.5784    1.0519e-16
5585.5974    1.0262e-16
5586.6165    1.0267e-16
5587.6355    1.0384e-16
5588.6545    9.9982e-17
5589.6736    1.0359e-16
5590.6926    1.0496e-16
5591.7116    1.0642e-16
5592.7307    9.8240e-17
5593.7497    1.0511e-16
5594.7687    1.0562e-16
5595.7878    1.0667e-16
5596.8068    1.0505e-16
5597.8258    1.0763e-16
5598.8449    1.0460e-16
5599.8639    1.0289e-16
5600.8829    1.0592e-16
5601.9020    1.0548e-16
5602.9210    9.6296e-17
5603.9400    1.0241e-16
5604.9591    1.0212e-16
5605.9781    1.0439e-16
5606.9971    1.0605e-16
5608.0162    1.0255e-16
5609.0352    1.0272e-16
5610.0543    1.0609e-16
5611.0733    1.0064e-16
5612.0923    9.8630e-17
5613.1114    1.0528e-16
5614.1304    9.9686e-17
5615.1494    1.0237e-16
5616.1685    1.0155e-16
5617.1875    9.9482e-17
5618.2065    9.6916e-17
5619.2256    1.0048e-16
5620.2446    1.0256e-16
5621.2636    9.9358e-17
5622.2827    1.0410e-16
5623.3017    1.0297e-16
5624.3207    9.8935e-17
5625.3398    9.8327e-17
5626.3588    9.8276e-17
5627.3778    1.0158e-16
5628.3969    9.9340e-17
5629.4159    1.0201e-16
5630.4349    1.0126e-16
5631.4540    9.8189e-17
5632.4730    9.5991e-17
5633.4920    9.9335e-17
5634.5111    1.0013e-16
5635.5301    1.0416e-16
5636.5491    1.0306e-16
5637.5682    9.8874e-17
5638.5872    9.9866e-17
5639.6063    9.9757e-17
5640.6253    1.0018e-16
5641.6443    9.9288e-17
5642.6634    1.0121e-16
5643.6824    1.0138e-16
5644.7014    9.8652e-17
5645.7205    9.9373e-17
5646.7395    1.0203e-16
5647.7585    9.9880e-17
5648.7776    9.7379e-17
5649.7966    9.9047e-17
5650.8156    1.0435e-16
5651.8347    1.0376e-16
5652.8537    1.0100e-16
5653.8727    1.0049e-16
5654.8918    9.9145e-17
5655.9108    9.8733e-17
5656.9298    1.0208e-16
5657.9489    1.0355e-16
5658.9679    9.7635e-17
5659.9869    9.5017e-17
5661.0060    9.8077e-17
5662.0250    9.6258e-17
5663.0440    9.4760e-17
5664.0631    9.8382e-17
5665.0821    1.0010e-16
5666.1011    9.9527e-17
5667.1202    9.9213e-17
5668.1392    9.7532e-17
5669.1583    9.6911e-17
5670.1773    9.5033e-17
5671.1963    9.5406e-17
5672.2154    9.8805e-17
5673.2344    9.8257e-17
5674.2534    9.8068e-17
5675.2725    9.4535e-17
5676.2915    9.5572e-17
5677.3105    9.8997e-17
5678.3296    9.7528e-17
5679.3486    9.5724e-17
5680.3676    9.8267e-17
5681.3867    1.0089e-16
5682.4057    1.0193e-16
5683.4247    1.0009e-16
5684.4438    9.7891e-17
5685.4628    9.4954e-17
5686.4818    9.4808e-17
5687.5009    9.6679e-17
5688.5199    9.7336e-17
5689.5389    9.6116e-17
5690.5580    9.6603e-17
5691.5770    9.7597e-17
5692.5960    9.3647e-17
5693.6151    9.4065e-17
5694.6341    9.8435e-17
5695.6531    9.7753e-17
5696.6722    9.5727e-17
5697.6912    9.6023e-17
5698.7103    9.5354e-17
5699.7293    9.4852e-17
5700.7483    9.5387e-17
5701.7674    9.6648e-17
5702.7864    9.8522e-17
5703.8054    9.4967e-17
5704.8245    9.4047e-17
5705.8435    9.8142e-17
5706.8625    9.5111e-17
5707.8816    9.6255e-17
5708.9006    9.8723e-17
5709.9196    9.8664e-17
5710.9387    9.5027e-17
5711.9577    9.2269e-17
5712.9767    9.4997e-17
5713.9958    9.6566e-17
5715.0148    9.5612e-17
5716.0338    9.1507e-17
5717.0529    9.3211e-17
5718.0719    9.5582e-17
5719.0909    9.8881e-17
5720.1100    9.6030e-17
5721.1290    9.2351e-17
5722.1480    9.8413e-17
5723.1671    9.8907e-17
5724.1861    9.9480e-17
5725.2051    9.8734e-17
5726.2242    9.3989e-17
5727.2432    9.2567e-17
5728.2623    1.0047e-16
5729.2813    9.6749e-17
5730.3003    9.3368e-17
5731.3194    9.2112e-17
5732.3384    9.2760e-17
5733.3574    9.3746e-17
5734.3765    9.7153e-17
5735.3955    9.6732e-17
5736.4145    9.1350e-17
5737.4336    8.8526e-17
5738.4526    8.7877e-17
5739.4716    8.3749e-17
5740.4907    9.3451e-17
5741.5097    9.6954e-17
5742.5287    9.8878e-17
5743.5478    9.6603e-17
5744.5668    9.5863e-17
5745.5858    9.1291e-17
5746.6049    9.1259e-17
5747.6239    9.4911e-17
5748.6429    9.3354e-17
5749.6620    9.4103e-17
5750.6810    9.4383e-17
5751.7000    9.3477e-17
5752.7191    8.8962e-17
5753.7381    9.1021e-17
5754.7572    9.6502e-17
5755.7762    9.5318e-17
5756.7952    9.6440e-17
5757.8143    9.4243e-17
5758.8333    9.1926e-17
5759.8523    9.4620e-17
5760.8714    9.2628e-17
5761.8904    9.1973e-17
5762.9094    9.4539e-17
5763.9285    9.5559e-17
5764.9475    9.4505e-17
5765.9665    9.1000e-17
5766.9856    9.0059e-17
5768.0046    9.2988e-17
5769.0236    9.6853e-17
5770.0427    9.8584e-17
5771.0617    9.7659e-17
5772.0807    8.9773e-17
5773.0998    8.8911e-17
5774.1188    8.6709e-17
5775.1378    8.3439e-17
5776.1569    8.5729e-17
5777.1759    8.4088e-17
5778.1949    8.8562e-17
5779.2140    8.8026e-17
5780.2330    8.8845e-17
5781.2520    8.6140e-17
5782.2711    8.5112e-17
5783.2901    9.0780e-17
5784.3092    8.6636e-17
5785.3282    8.4863e-17
5786.3472    8.9933e-17
5787.3663    9.1107e-17
5788.3853    8.5115e-17
5789.4043    9.2770e-17
5790.4234    8.7616e-17
5791.4424    8.7149e-17
5792.4614    8.7315e-17
5793.4805    8.6400e-17
5794.4995    8.4911e-17
5795.5185    8.5036e-17
5796.5376    9.0918e-17
5797.5566    8.6952e-17
5798.5756    8.4553e-17
5799.5947    8.5289e-17
5800.6137    9.3045e-17
5801.6327    9.5076e-17
5802.6518    8.7780e-17
5803.6708    8.8899e-17
5804.6898    8.4709e-17
5805.7089    8.8978e-17
5806.7279    8.9814e-17
5807.7469    9.1743e-17
5808.7660    7.8543e-17
5809.7850    9.0313e-17
5810.8040    9.0947e-17
5811.8231    8.8982e-17
5812.8421    9.0583e-17
5813.8612    9.0799e-17
5814.8802    8.9964e-17
5815.8992    9.2204e-17
5816.9183    9.4520e-17
5817.9373    8.7137e-17
5818.9563    9.1071e-17
5819.9754    8.8454e-17
5820.9944    8.9443e-17
5822.0134    9.3384e-17
5823.0325    9.2526e-17
5824.0515    8.9197e-17
5825.0705    9.1068e-17
5826.0896    8.9387e-17
5827.1086    8.7914e-17
5828.1276    8.7200e-17
5829.1467    8.9585e-17
5830.1657    9.3241e-17
5831.1847    9.2622e-17
5832.2038    9.1123e-17
5833.2228    8.9879e-17
5834.2418    8.9861e-17
5835.2609    8.7904e-17
5836.2799    8.8472e-17
5837.2989    9.0896e-17
5838.3180    9.3446e-17
5839.3370    8.9953e-17
5840.3560    8.8133e-17
5841.3751    8.9711e-17
5842.3941    8.7251e-17
5843.4132    8.7771e-17
5844.4322    9.1552e-17
5845.4512    9.4223e-17
5846.4703    9.3399e-17
5847.4893    9.0235e-17
5848.5083    8.9988e-17
5849.5274    9.0370e-17
5850.5464    9.1008e-17
5851.5654    9.0651e-17
5852.5845    8.9314e-17
5853.6035    8.8523e-17
5854.6225    8.8757e-17
5855.6416    9.1716e-17
5856.6606    9.4771e-17
5857.6796    9.3892e-17
5858.6987    9.2055e-17
5859.7177    9.2439e-17
5860.7367    9.4000e-17
5861.7558    9.1992e-17
5862.7748    9.2576e-17
5863.7938    9.4341e-17
5864.8129    9.3524e-17
5865.8319    9.3060e-17
5866.8509    9.1329e-17
5867.8700    9.0391e-17
5868.8890    9.0916e-17
5869.9080    9.2049e-17
5870.9271    9.1737e-17
5871.9461    8.8827e-17
5872.9652    8.9369e-17
5873.9842    9.1388e-17
5875.0032    8.9695e-17
5876.0223    9.1958e-17
5877.0413    9.1023e-17
5878.0603    9.0528e-17
5879.0794    9.1130e-17
5880.0984    9.1842e-17
5881.1174    9.3014e-17
5882.1365    9.3313e-17
5883.1555    9.1132e-17
5884.1745    8.9943e-17
5885.1936    8.9595e-17
5886.2126    9.2280e-17
5887.2316    9.0326e-17
5888.2507    8.9533e-17
5889.2697    8.6753e-17
5890.2887    9.0714e-17
5891.3078    9.2290e-17
5892.3268    9.1202e-17
5893.3458    9.3464e-17
5894.3649    9.1972e-17
5895.3839    9.3485e-17
5896.4029    9.1172e-17
5897.4220    9.1392e-17
5898.4410    8.8826e-17
5899.4600    8.8739e-17
5900.4791    8.9473e-17
5901.4981    9.2627e-17
5902.5172    9.0053e-17
5903.5362    9.0563e-17
5904.5552    9.3077e-17
5905.5743    8.8204e-17
5906.5933    8.9263e-17
5907.6123    8.8186e-17
5908.6314    9.2513e-17
5909.6504    9.2277e-17
5910.6694    8.6949e-17
5911.6885    8.8784e-17
5912.7075    9.1849e-17
5913.7265    9.3073e-17
5914.7456    9.2171e-17
5915.7646    8.9459e-17
5916.7836    9.2048e-17
5917.8027    9.2213e-17
5918.8217    9.0138e-17
5919.8407    9.0708e-17
5920.8598    9.2513e-17
5921.8788    8.9133e-17
5922.8978    9.0589e-17
5923.9169    8.9995e-17
5924.9359    8.9219e-17
5925.9549    8.9861e-17
5926.9740    8.9390e-17
5927.9930    9.2731e-17
5929.0120    9.2685e-17
5930.0311    8.9950e-17
5931.0501    8.9677e-17
5932.0692    9.3394e-17
5933.0882    9.5355e-17
5934.1072    9.5260e-17
5935.1263    9.0604e-17
5936.1453    9.0832e-17
5937.1643    9.3381e-17
5938.1834    8.9582e-17
5939.2024    9.0530e-17
5940.2214    9.1837e-17
5941.2405    9.1393e-17
5942.2595    9.0789e-17
5943.2785    9.2253e-17
5944.2976    9.3234e-17
5945.3166    9.1079e-17
5946.3356    8.9741e-17
5947.3547    8.6450e-17
5948.3737    8.7281e-17
5949.3927    8.8159e-17
5950.4118    9.0351e-17
5951.4308    9.1404e-17
5952.4498    9.4026e-17
5953.4689    9.5611e-17
5954.4879    9.1491e-17
5955.5069    8.7415e-17
5956.5260    8.8600e-17
5957.5450    9.0722e-17
5958.5641    8.8145e-17
5959.5831    8.6172e-17
5960.6021    8.9370e-17
5961.6212    9.1988e-17
5962.6402    8.9472e-17
5963.6592    8.8062e-17
5964.6783    8.8383e-17
5965.6973    9.0551e-17
5966.7163    8.8627e-17
5967.7354    8.9063e-17
5968.7544    8.9276e-17
5969.7734    9.1016e-17
5970.7925    9.1493e-17
5971.8115    9.1207e-17
5972.8305    9.0483e-17
5973.8496    8.8241e-17
5974.8686    9.2611e-17
5975.8876    9.0071e-17
5976.9067    9.0642e-17
5977.9257    9.1374e-17
5978.9447    8.6810e-17
5979.9638    9.2061e-17
5980.9828    8.9025e-17
5982.0018    8.7189e-17
5983.0209    8.8700e-17
5984.0399    8.3604e-17
5985.0589    9.0088e-17
5986.0780    9.2633e-17
5987.0970    8.9744e-17
5988.1161    8.9948e-17
5989.1351    8.6142e-17
5990.1541    8.4536e-17
5991.1732    8.7519e-17
5992.1922    8.6380e-17
5993.2112    8.6346e-17
5994.2303    8.8458e-17
5995.2493    8.7444e-17
5996.2683    8.7379e-17
5997.2874    8.6328e-17
5998.3064    8.8383e-17
5999.3254    8.8746e-17
6000.3445    8.8080e-17
6001.3635    8.9839e-17
6002.3825    8.8769e-17
6003.4016    8.9557e-17
6004.4206    8.7330e-17
6005.4396    8.5389e-17
6006.4587    8.4937e-17
6007.4777    8.7186e-17
6008.4967    8.5937e-17
6009.5158    8.5932e-17
6010.5348    8.8676e-17
6011.5538    8.7544e-17
6012.5729    8.6201e-17
6013.5919    8.6124e-17
6014.6109    8.9920e-17
6015.6300    8.8585e-17
6016.6490    8.6293e-17
6017.6681    8.8938e-17
6018.6871    8.6973e-17
6019.7061    8.5104e-17
6020.7252    8.6520e-17
6021.7442    8.6699e-17
6022.7632    8.9555e-17
6023.7823    8.9762e-17
6024.8013    8.6418e-17
6025.8203    8.7415e-17
6026.8394    8.5447e-17
6027.8584    8.5829e-17
6028.8774    8.7152e-17
6029.8965    8.8860e-17
6030.9155    8.5092e-17
6031.9345    8.5005e-17
6032.9536    8.7275e-17
6033.9726    8.5260e-17
6034.9916    8.7077e-17
6036.0107    8.4243e-17
6037.0297    8.8835e-17
6038.0487    8.6596e-17
6039.0678    8.8781e-17
6040.0868    8.8553e-17
6041.1058    8.9440e-17
6042.1249    8.5843e-17
6043.1439    8.6951e-17
6044.1629    8.7601e-17
6045.1820    8.5305e-17
6046.2010    8.5107e-17
6047.2201    8.8490e-17
6048.2391    8.4969e-17
6049.2581    8.5634e-17
6050.2772    8.5706e-17
6051.2962    8.5803e-17
6052.3152    8.6247e-17
6053.3343    8.2924e-17
6054.3533    8.2049e-17
6055.3723    8.1666e-17
6056.3914    8.3172e-17
6057.4104    8.1892e-17
6058.4294    8.4366e-17
6059.4485    8.5198e-17
6060.4675    8.5418e-17
6061.4865    8.8606e-17
6062.5056    8.7021e-17
6063.5246    8.4645e-17
6064.5436    8.3079e-17
6065.5627    8.2611e-17
6066.5817    8.6315e-17
6067.6007    8.6233e-17
6068.6198    8.4224e-17
6069.6388    8.7243e-17
6070.6578    8.7055e-17
6071.6769    8.1478e-17
6072.6959    8.2237e-17
6073.7149    8.5845e-17
6074.7340    8.6105e-17
6075.7530    8.3575e-17
6076.7721    8.4127e-17
6077.7911    8.4330e-17
6078.8101    8.1719e-17
6079.8292    8.1703e-17
6080.8482    8.2902e-17
6081.8672    8.3472e-17
6082.8863    8.4153e-17
6083.9053    8.3179e-17
6084.9243    8.3379e-17
6085.9434    8.2569e-17
6086.9624    8.3864e-17
6087.9814    8.4315e-17
6089.0005    8.3559e-17
6090.0195    8.3108e-17
6091.0385    8.3121e-17
6092.0576    8.2914e-17
6093.0766    8.3766e-17
6094.0956    8.2119e-17
6095.1147    8.0739e-17
6096.1337    8.1737e-17
6097.1527    8.3293e-17
6098.1718    8.1129e-17
6099.1908    8.0088e-17
6100.2098    8.0411e-17
6101.2289    8.3157e-17
6102.2479    8.2651e-17
6103.2669    8.2492e-17
6104.2860    8.3919e-17
6105.3050    8.5876e-17
6106.3241    8.5236e-17
6107.3431    8.1981e-17
6108.3621    8.0523e-17
6109.3812    8.1043e-17
6110.4002    8.4757e-17
6111.4192    8.2826e-17
6112.4383    8.0099e-17
6113.4573    7.9627e-17
6114.4763    8.2524e-17
6115.4954    8.1571e-17
6116.5144    8.0116e-17
6117.5334    7.9638e-17
6118.5525    8.1002e-17
6119.5715    8.1136e-17
6120.5905    8.1948e-17
6121.6096    8.2826e-17
6122.6286    8.2303e-17
6123.6476    8.0900e-17
6124.6667    8.2850e-17
6125.6857    8.4416e-17
6126.7047    8.5546e-17
6127.7238    8.1334e-17
6128.7428    8.4677e-17
6129.7618    8.3640e-17
6130.7809    8.3877e-17
6131.7999    8.7256e-17
6132.8189    8.5641e-17
6133.8380    8.2380e-17
6134.8570    8.2673e-17
6135.8761    8.3103e-17
6136.8951    8.7625e-17
6137.9141    9.0379e-17
6138.9332    9.0932e-17
6139.9522    9.0790e-17
6140.9712    9.2105e-17
6141.9903    9.2058e-17
6143.0093    9.1159e-17
6144.0283    8.6850e-17
6145.0474    8.5752e-17
6146.0664    8.6694e-17
6147.0854    8.6599e-17
6148.1045    8.6033e-17
6149.1235    8.3702e-17
6150.1425    8.3041e-17
6151.1616    8.2902e-17
6152.1806    8.1994e-17
6153.1996    8.2225e-17
6154.2187    8.6116e-17
6155.2377    8.7693e-17
6156.2567    8.4955e-17
6157.2758    8.3087e-17
6158.2948    8.3327e-17
6159.3138    8.5695e-17
6160.3329    8.5693e-17
6161.3519    8.3872e-17
6162.3710    8.3861e-17
6163.3900    8.3858e-17
6164.4090    8.3519e-17
6165.4281    8.0368e-17
6166.4471    8.0590e-17
6167.4661    8.1101e-17
6168.4852    8.2210e-17
6169.5042    8.5233e-17
6170.5232    8.5745e-17
6171.5423    8.4195e-17
6172.5613    8.4606e-17
6173.5803    8.4704e-17
6174.5994    8.4417e-17
6175.6184    8.1119e-17
6176.6374    8.0205e-17
6177.6565    7.9670e-17
6178.6755    8.2780e-17
6179.6945    8.1576e-17
6180.7136    8.2423e-17
6181.7326    8.3648e-17
6182.7516    8.1832e-17
6183.7707    8.1877e-17
6184.7897    8.1712e-17
6185.8087    8.2837e-17
6186.8278    8.6868e-17
6187.8468    8.5037e-17
6188.8658    8.2023e-17
6189.8849    8.0943e-17
6190.9039    8.2180e-17
6191.9230    8.0933e-17
6192.9420    8.2240e-17
6193.9610    8.4161e-17
6194.9801    8.0387e-17
6195.9991    7.9757e-17
6197.0181    7.8928e-17
6198.0372    7.9734e-17
6199.0562    7.9590e-17
6200.0752    8.1384e-17
6201.0943    8.2590e-17
6202.1133    8.0167e-17
6203.1323    8.0462e-17
6204.1514    8.0651e-17
6205.1704    8.1743e-17
6206.1894    8.0149e-17
6207.2085    8.1298e-17
6208.2275    7.9607e-17
6209.2465    7.9068e-17
6210.2656    8.0553e-17
6211.2846    8.2022e-17
6212.3036    8.2050e-17
6213.3227    8.1086e-17
6214.3417    8.3066e-17
6215.3607    8.2549e-17
6216.3798    8.0015e-17
6217.3988    8.0658e-17
6218.4178    8.1194e-17
6219.4369    7.9921e-17
6220.4559    8.0068e-17
6221.4750    7.9227e-17
6222.4940    7.8549e-17
6223.5130    8.0088e-17
6224.5321    7.9765e-17
6225.5511    7.8784e-17
6226.5701    7.8247e-17
6227.5892    8.1600e-17
6228.6082    8.0105e-17
6229.6272    7.9247e-17
6230.6463    7.8546e-17
6231.6653    8.0574e-17
6232.6843    8.1031e-17
6233.7034    8.1128e-17
6234.7224    8.0379e-17
6235.7414    7.8576e-17
6236.7605    7.8076e-17
6237.7795    7.8893e-17
6238.7985    7.8578e-17
6239.8176    7.9889e-17
6240.8366    7.8233e-17
6241.8556    8.0467e-17
6242.8747    8.1616e-17
6243.8937    7.6664e-17
6244.9127    7.5982e-17
6245.9318    7.8818e-17
6246.9508    7.9053e-17
6247.9698    7.8439e-17
6248.9889    8.1124e-17
6250.0079    7.8781e-17
6251.0270    7.7256e-17
6252.0460    7.5603e-17
6253.0650    7.7784e-17
6254.0841    7.6216e-17
6255.1031    7.6247e-17
6256.1221    7.8503e-17
6257.1412    8.2092e-17
6258.1602    8.0008e-17
6259.1792    7.9645e-17
6260.1983    8.0605e-17
6261.2173    8.0257e-17
6262.2363    7.7218e-17
6263.2554    7.8359e-17
6264.2744    7.9913e-17
6265.2934    7.8222e-17
6266.3125    7.8876e-17
6267.3315    7.9260e-17
6268.3505    7.6181e-17
6269.3696    7.7370e-17
6270.3886    8.0159e-17
6271.4076    7.9655e-17
6272.4267    7.9287e-17
6273.4457    8.0166e-17
6274.4647    7.6440e-17
6275.4838    7.6758e-17
6276.5028    7.5343e-17
6277.5218    7.4786e-17
6278.5409    7.4095e-17
6279.5599    7.2436e-17
6280.5790    7.3919e-17
6281.5980    7.4430e-17
6282.6170    7.4356e-17
6283.6361    7.5218e-17
6284.6551    7.2822e-17
6285.6741    7.5564e-17
6286.6932    7.6356e-17
6287.7122    8.0569e-17
6288.7312    7.6457e-17
6289.7503    7.9546e-17
6290.7693    7.7182e-17
6291.7883    7.5634e-17
6292.8074    7.5823e-17
6293.8264    7.4583e-17
6294.8454    7.5212e-17
6295.8645    7.3770e-17
6296.8835    7.4147e-17
6297.9025    7.4766e-17
6298.9216    7.3737e-17
6299.9406    7.4338e-17
6300.9596    7.4895e-17
6301.9787    6.8456e-17
6302.9977    7.1624e-17
6304.0167    7.5758e-17
6305.0358    7.6401e-17
6306.0548    7.5802e-17
6307.0738    7.2757e-17
6308.0929    7.5889e-17
6309.1119    7.8576e-17
6310.1310    7.7545e-17
6311.1500    7.5047e-17
6312.1690    7.6379e-17
6313.1881    7.6932e-17
6314.2071    7.7945e-17
6315.2261    7.9871e-17
6316.2452    7.8992e-17
6317.2642    7.7958e-17
6318.2832    7.8124e-17
6319.3023    7.7497e-17
6320.3213    7.5599e-17
6321.3403    7.5405e-17
6322.3594    7.5960e-17
6323.3784    7.6691e-17
6324.3974    7.9103e-17
6325.4165    7.9582e-17
6326.4355    7.8611e-17
6327.4545    7.7057e-17
6328.4736    7.5974e-17
6329.4926    7.6119e-17
6330.5116    7.6431e-17
6331.5307    7.6966e-17
6332.5497    7.7511e-17
6333.5687    7.7089e-17
6334.5878    7.6281e-17
6335.6068    7.7117e-17
6336.6258    7.7592e-17
6337.6449    7.6976e-17
6338.6639    7.8136e-17
6339.6830    7.8060e-17
6340.7020    7.7431e-17
6341.7210    7.7330e-17
6342.7401    7.7167e-17
6343.7591    7.6599e-17
6344.7781    7.6763e-17
6345.7972    7.7908e-17
6346.8162    7.7010e-17
6347.8352    7.6354e-17
6348.8543    7.5859e-17
6349.8733    7.7653e-17
6350.8923    7.6133e-17
6351.9114    7.5555e-17
6352.9304    7.9106e-17
6353.9494    7.6271e-17
6354.9685    7.7185e-17
6355.9875    7.5092e-17
6357.0065    7.7093e-17
6358.0256    8.1277e-17
6359.0446    8.1550e-17
6360.0636    7.9441e-17
6361.0827    7.7592e-17
6362.1017    7.8342e-17
6363.1207    7.6163e-17
6364.1398    7.5963e-17
6365.1588    7.7891e-17
6366.1779    7.6017e-17
6367.1969    7.6194e-17
6368.2159    7.6546e-17
6369.2350    7.5251e-17
6370.2540    7.6327e-17
6371.2730    7.9417e-17
6372.2921    7.6685e-17
6373.3111    7.9160e-17
6374.3301    7.5746e-17
6375.3492    7.5735e-17
6376.3682    7.8216e-17
6377.3872    7.8426e-17
6378.4063    7.5440e-17
6379.4253    7.5758e-17
6380.4443    7.5915e-17
6381.4634    7.5916e-17
6382.4824    7.5009e-17
6383.5014    7.5392e-17
6384.5205    7.5306e-17
6385.5395    7.5714e-17
6386.5585    7.5625e-17
6387.5776    7.6619e-17
6388.5966    7.5467e-17
6389.6156    7.5246e-17
6390.6347    7.5567e-17
6391.6537    7.6237e-17
6392.6727    7.5593e-17
6393.6918    7.6356e-17
6394.7108    7.7346e-17
6395.7299    7.5632e-17
6396.7489    7.4833e-17
6397.7679    7.3917e-17
6398.7870    7.4519e-17
6399.8060    7.6195e-17
6400.8250    7.5449e-17
6401.8441    7.5428e-17
6402.8631    7.6550e-17
6403.8821    7.4799e-17
6404.9012    7.4546e-17
6405.9202    7.6376e-17
6406.9392    7.4699e-17
6407.9583    7.5571e-17
6408.9773    7.7158e-17
6409.9963    7.6018e-17
6411.0154    7.6317e-17
6412.0344    7.7035e-17
6413.0534    7.4958e-17
6414.0725    7.4966e-17
6415.0915    7.5543e-17
6416.1105    7.4947e-17
6417.1296    7.5597e-17
6418.1486    7.5702e-17
6419.1676    7.6007e-17
6420.1867    7.3702e-17
6421.2057    7.4220e-17
6422.2247    7.7255e-17
6423.2438    7.6017e-17
6424.2628    7.6265e-17
6425.2819    7.5130e-17
6426.3009    7.3827e-17
6427.3199    7.4894e-17
6428.3390    7.3422e-17
6429.3580    7.2645e-17
6430.3770    7.1512e-17
6431.3961    7.3966e-17
6432.4151    7.5231e-17
6433.4341    7.7116e-17
6434.4532    7.2946e-17
6435.4722    7.3693e-17
6436.4912    7.5811e-17
6437.5103    7.5228e-17
6438.5293    7.3971e-17
6439.5483    7.6251e-17
6440.5674    7.6293e-17
6441.5864    7.7112e-17
6442.6054    7.4440e-17
6443.6245    7.4963e-17
6444.6435    7.5054e-17
6445.6625    7.5062e-17
6446.6816    7.3009e-17
6447.7006    7.3257e-17
6448.7196    7.5554e-17
6449.7387    7.5277e-17
6450.7577    7.4802e-17
6451.7767    7.2664e-17
6452.7958    7.5217e-17
6453.8148    7.6170e-17
6454.8339    7.5968e-17
6455.8529    7.7131e-17
6456.8719    7.4251e-17
6457.8910    7.3624e-17
6458.9100    7.4292e-17
6459.9290    7.4822e-17
6460.9481    7.5222e-17
6461.9671    7.2759e-17
6462.9861    7.4077e-17
6464.0052    7.4217e-17
6465.0242    7.2788e-17
6466.0432    7.0544e-17
6467.0623    7.1134e-17
6468.0813    7.2581e-17
6469.1003    7.2357e-17
6470.1194    7.0619e-17
6471.1384    7.3651e-17
6472.1574    7.2108e-17
6473.1765    7.3652e-17
6474.1955    7.3943e-17
6475.2145    7.1194e-17
6476.2336    7.3342e-17
6477.2526    7.2419e-17
6478.2716    7.5642e-17
6479.2907    7.3645e-17
6480.3097    7.3914e-17
6481.3287    7.0178e-17
6482.3478    7.0475e-17
6483.3668    7.3790e-17
6484.3859    7.1606e-17
6485.4049    7.3402e-17
6486.4239    7.4550e-17
6487.4430    7.3637e-17
6488.4620    7.2999e-17
6489.4810    7.1533e-17
6490.5001    7.1005e-17
6491.5191    7.1816e-17
6492.5381    7.2732e-17
6493.5572    7.3509e-17
6494.5762    7.3616e-17
6495.5952    7.2918e-17
6496.6143    7.2889e-17
6497.6333    7.2898e-17
6498.6523    7.3122e-17
6499.6714    7.3003e-17
6500.6904    7.0867e-17
6501.7094    7.0882e-17
6502.7285    7.1530e-17
6503.7475    7.3273e-17
6504.7665    7.4061e-17
6505.7856    7.2188e-17
6506.8046    7.1241e-17
6507.8236    7.0565e-17
6508.8427    7.1056e-17
6509.8617    7.2637e-17
6510.8807    7.2911e-17
6511.8998    7.2144e-17
6512.9188    6.8887e-17
6513.9379    7.2746e-17
6514.9569    7.4330e-17
6515.9759    7.1640e-17
6516.9950    7.1934e-17
6518.0140    6.8911e-17
6519.0330    7.2094e-17
6520.0521    7.5690e-17
6521.0711    7.3745e-17
6522.0901    7.2059e-17
6523.1092    7.1568e-17
6524.1282    7.0790e-17
6525.1472    7.1588e-17
6526.1663    7.3792e-17
6527.1853    7.2811e-17
6528.2043    7.3764e-17
6529.2234    7.3560e-17
6530.2424    7.4256e-17
6531.2614    7.2260e-17
6532.2805    7.1447e-17
6533.2995    7.2306e-17
6534.3185    7.3351e-17
6535.3376    7.3170e-17
6536.3566    7.2705e-17
6537.3756    7.2947e-17
6538.3947    7.2570e-17
6539.4137    7.2218e-17
6540.4327    7.1182e-17
6541.4518    7.1073e-17
6542.4708    7.1814e-17
6543.4899    7.1666e-17
6544.5089    7.1073e-17
6545.5279    7.1984e-17
6546.5470    7.0905e-17
6547.5660    7.1238e-17
6548.5850    7.2645e-17
6549.6041    7.3062e-17
6550.6231    7.4372e-17
6551.6421    7.2491e-17
6552.6612    7.2446e-17
6553.6802    7.1451e-17
6554.6992    7.2212e-17
6555.7183    7.1080e-17
6556.7373    7.2917e-17
6557.7563    7.0132e-17
6558.7754    7.0465e-17
6559.7944    7.1595e-17
6560.8134    7.2616e-17
6561.8325    7.4088e-17
6562.8515    7.2794e-17
6563.8705    7.3382e-17
6564.8896    7.1632e-17
6565.9086    7.1592e-17
6566.9276    7.2370e-17
6567.9467    7.2795e-17
6568.9657    7.2311e-17
6569.9848    7.2081e-17
6571.0038    7.0320e-17
6572.0228    6.9348e-17
6573.0419    7.0835e-17
6574.0609    7.0888e-17
6575.0799    7.1046e-17
6576.0990    6.9378e-17
6577.1180    7.2469e-17
6578.1370    7.4840e-17
6579.1561    7.5007e-17
6580.1751    7.0895e-17
6581.1941    7.1130e-17
6582.2132    7.1795e-17
6583.2322    7.2721e-17
6584.2512    7.1854e-17
6585.2703    7.1635e-17
6586.2893    7.2156e-17
6587.3083    7.2257e-17
6588.3274    6.9617e-17
6589.3464    7.0356e-17
6590.3654    7.0594e-17
6591.3845    7.1087e-17
6592.4035    7.3326e-17
6593.4225    7.2906e-17
6594.4416    7.1104e-17
6595.4606    7.0193e-17
6596.4796    7.0782e-17
6597.4987    7.1588e-17
6598.5177    7.1955e-17
6599.5368    7.1795e-17
6600.5558    7.1907e-17
6601.5748    7.1655e-17
6602.5939    7.0378e-17
6603.6129    7.0805e-17
6604.6319    6.9619e-17
6605.6510    7.0335e-17
6606.6700    7.0942e-17
6607.6890    6.8546e-17
6608.7081    6.9958e-17
6609.7271    7.0413e-17
6610.7461    6.9397e-17
6611.7652    7.0304e-17
6612.7842    7.0576e-17
6613.8032    6.8792e-17
6614.8223    7.0136e-17
6615.8413    7.1809e-17
6616.8603    7.3461e-17
6617.8794    7.0937e-17
6618.8984    7.2679e-17
6619.9174    7.1142e-17
6620.9365    7.0573e-17
6621.9555    7.0912e-17
6622.9745    6.9615e-17
6623.9936    6.9737e-17
6625.0126    7.1383e-17
6626.0316    7.2854e-17
6627.0507    7.1632e-17
6628.0697    6.9726e-17
6629.0888    7.0013e-17
6630.1078    7.0781e-17
6631.1268    6.8221e-17
6632.1459    6.9836e-17
6633.1649    7.0069e-17
6634.1839    7.3386e-17
6635.2030    7.2993e-17
6636.2220    7.2088e-17
6637.2410    7.4181e-17
6638.2601    7.5418e-17
6639.2791    7.4761e-17
6640.2981    7.4352e-17
6641.3172    7.2408e-17
6642.3362    7.0494e-17
6643.3552    7.1327e-17
6644.3743    7.2837e-17
6645.3933    7.2349e-17
6646.4123    7.0825e-17
6647.4314    7.0767e-17
6648.4504    7.0205e-17
6649.4694    7.0765e-17
6650.4885    7.0991e-17
6651.5075    7.1367e-17
6652.5265    7.2982e-17
6653.5456    7.2379e-17
6654.5646    7.1512e-17
6655.5836    7.1834e-17
6656.6027    7.2152e-17
6657.6217    7.1667e-17
6658.6408    7.0747e-17
6659.6598    7.3250e-17
6660.6788    7.1927e-17
6661.6979    6.9995e-17
6662.7169    7.1739e-17
6663.7359    7.2833e-17
6664.7550    7.3125e-17
6665.7740    7.1901e-17
6666.7930    7.0108e-17
6667.8121    7.1302e-17
6668.8311    7.1550e-17
6669.8501    6.7464e-17
6670.8692    6.8983e-17
6671.8882    7.0313e-17
6672.9072    7.0104e-17
6673.9263    7.1615e-17
6674.9453    7.1735e-17
6675.9643    7.3012e-17
6676.9834    7.0815e-17
6678.0024    7.0462e-17
6679.0214    7.0467e-17
6680.0405    7.0865e-17
6681.0595    6.9626e-17
6682.0785    6.9346e-17
6683.0976    6.7069e-17
6684.1166    6.7837e-17
6685.1356    6.9971e-17
6686.1547    7.1445e-17
6687.1737    7.2487e-17
6688.1928    7.2430e-17
6689.2118    7.0947e-17
6690.2308    7.1091e-17
6691.2499    7.3334e-17
6692.2689    7.0128e-17
6693.2879    7.0767e-17
6694.3070    7.1802e-17
6695.3260    6.8340e-17
6696.3450    6.7699e-17
6697.3641    6.9671e-17
6698.3831    7.0512e-17
6699.4021    6.9736e-17
6700.4212    7.1360e-17
6701.4402    7.0702e-17
6702.4592    6.9966e-17
6703.4783    7.1846e-17
6704.4973    7.1706e-17
6705.5163    7.1370e-17
6706.5354    7.0033e-17
6707.5544    7.0671e-17
6708.5734    7.0846e-17
6709.5925    7.1917e-17
6710.6115    7.0835e-17
6711.6305    7.0294e-17
6712.6496    7.2122e-17
6713.6686    6.8483e-17
6714.6876    7.1552e-17
6715.7067    7.0466e-17
6716.7257    7.1724e-17
6717.7448    6.9284e-17
6718.7638    7.2603e-17
6719.7828    7.1838e-17
6720.8019    7.0255e-17
6721.8209    7.0363e-17
6722.8399    7.0963e-17
6723.8590    7.0472e-17
6724.8780    6.9789e-17
6725.8970    7.1345e-17
6726.9161    7.1008e-17
6727.9351    6.9900e-17
6728.9541    7.0057e-17
6729.9732    6.9345e-17
6730.9922    6.9603e-17
6732.0112    7.1736e-17
6733.0303    7.1572e-17
6734.0493    6.8974e-17
6735.0683    6.9324e-17
6736.0874    7.2529e-17
6737.1064    6.7049e-17
6738.1254    6.7973e-17
6739.1445    7.1257e-17
6740.1635    7.1310e-17
6741.1825    7.2827e-17
6742.2016    7.2404e-17
6743.2206    7.0998e-17
6744.2396    7.1693e-17
6745.2587    6.9581e-17
6746.2777    7.0586e-17
6747.2968    7.2193e-17
6748.3158    7.2930e-17
6749.3348    6.8936e-17
6750.3539    6.9835e-17
6751.3729    6.7893e-17
6752.3919    6.8667e-17
6753.4110    6.9673e-17
6754.4300    7.1306e-17
6755.4490    6.8557e-17
6756.4681    6.9593e-17
6757.4871    6.9437e-17
6758.5061    7.0123e-17
6759.5252    7.2547e-17
6760.5442    7.0261e-17
6761.5632    7.0798e-17
6762.5823    7.0918e-17
6763.6013    6.9166e-17
6764.6203    7.0172e-17
6765.6394    7.0149e-17
6766.6584    7.0620e-17
6767.6774    6.9755e-17
6768.6965    6.9220e-17
6769.7155    6.8916e-17
6770.7345    6.8617e-17
6771.7536    6.7613e-17
6772.7726    6.8349e-17
6773.7917    6.9605e-17
6774.8107    6.9662e-17
6775.8297    6.9531e-17
6776.8488    6.8359e-17
6777.8678    6.9489e-17
6778.8868    6.9135e-17
6779.9059    6.8217e-17
6780.9249    6.8072e-17
6781.9439    6.8729e-17
6782.9630    6.9535e-17
6783.9820    7.0115e-17
6785.0010    7.2522e-17
6786.0201    7.0915e-17
6787.0391    6.9040e-17
6788.0581    6.6696e-17
6789.0772    6.8884e-17
6790.0962    6.7246e-17
6791.1152    6.7927e-17
6792.1343    6.8821e-17
6793.1533    7.0695e-17
6794.1723    6.9173e-17
6795.1914    6.9981e-17
6796.2104    6.7971e-17
6797.2294    6.7145e-17
6798.2485    6.8759e-17
6799.2675    6.6554e-17
6800.2865    6.6547e-17
6801.3056    6.9119e-17
6802.3246    6.7748e-17
6803.3437    6.7608e-17
6804.3627    6.7606e-17
6805.3817    6.7796e-17
6806.4008    6.6791e-17
6807.4198    6.7503e-17
6808.4388    7.0289e-17
6809.4579    6.8751e-17
6810.4769    6.8400e-17
6811.4959    6.9030e-17
6812.5150    7.4930e-17
6813.5340    7.3248e-17
6814.5530    7.2622e-17
6815.5721    7.5409e-17
6816.5911    7.6854e-17
6817.6101    7.5552e-17
6818.6292    7.4894e-17
6819.6482    7.3362e-17
6820.6672    7.4806e-17
6821.6863    7.8159e-17
6822.7053    7.7175e-17
6823.7243    7.4168e-17
6824.7434    7.4980e-17
6825.7624    7.4855e-17
6826.7814    7.3203e-17
6827.8005    7.5529e-17
6828.8195    7.8254e-17
6829.8385    7.7776e-17
6830.8576    7.6111e-17
6831.8766    7.5450e-17
6832.8957    7.6749e-17
6833.9147    7.8859e-17
6834.9337    7.9254e-17
6835.9528    7.8209e-17
6836.9718    7.9189e-17
6837.9908    8.2306e-17
6839.0099    8.1137e-17
6840.0289    7.9282e-17
6841.0479    7.8990e-17
6842.0670    7.8405e-17
6843.0860    7.7588e-17
6844.1050    7.9145e-17
6845.1241    8.1153e-17
6846.1431    7.9743e-17
6847.1621    8.0798e-17
6848.1812    8.4218e-17
6849.2002    8.3453e-17
6850.2192    8.5569e-17
6851.2383    9.1697e-17
6852.2573    9.1148e-17
6853.2763    8.8121e-17
6854.2954    8.9860e-17
6855.3144    1.0252e-16
6856.3334    1.1396e-16
6857.3525    1.2230e-16
6858.3715    1.2633e-16
6859.3905    1.2093e-16
6860.4096    1.0952e-16
