# SIMPLE  =                    T / Fits standard                                  
# BITPIX  =                   16 / Bits per pixel                                 
# NAXIS   =                    0 / Number of axes                                 
# EXTEND  =                    T / File may contain extensions                    
# ORIGIN  = 'NOAO-IRAF FITS Image Kernel July 2003' / FITS file originator        
# DATE    = '2021-02-09T03:52:05' / Date FITS file was generated                  
# IRAF-TLM= '2021-02-10T03:58:34' / Time of last modification                     
# COMMENT   FITS (Flexible Image Transport System) format is defined in 'Astronomy
# COMMENT   and Astrophysics', volume 376, page 359; bibcode: 2001A&A...376..359H 
# INSTRUME= 'GMOS-N  '           / Instrument used to acquire data                
# OBJECT  = 'ZTF21aaiaqhh'       / Object Name                                    
# OBSTYPE = 'OBJECT  '           / Observation type                               
# OBSCLASS= 'science '           / Observe class                                  
# GEMPRGID= 'GN-2021A-Q-901'     / Gemini programme ID                            
# OBSID   = 'GN-2021A-Q-901-69'  / Observation ID / Data label                    
# DATALAB = 'GN-2021A-Q-901-69-002' / DHS data label                              
# OBSERVER= 'tgeballe'           / Observer                                       
# OBSERVAT= 'Gemini-North'       / Name of telescope (Gemini-North|Gemini-South)  
# TELESCOP= 'Gemini-North'       / Gemini-North                                   
# PARALLAX=                   0. / Parallax of Target                             
# RADVEL  =                   0. / Heliocentric Radial Velocity                   
# EPOCH   =                2000. / Epoch for Target coordinates                   
# EQUINOX =                2000. / Equinox of coordinate system                   
# TRKEQUIN=                2000. / Tracking equinox                               
# SSA     = 'jcortes '           / SSA                                            
# RA      =         193.87833333 / Right Ascension                                
# DEC     =          30.02800278 / Declination of Target                          
# ELEVATIO=     54.0308166666667 / Current Elevation                              
# AZIMUTH =     66.1354152777778 / Current Azimuth                                
# CRPA    =    -5.81664027760459 / Current Cass Rotator Position Angle            
# HA      = '-02:33:13.43'       / Telescope hour angle                           
# LT      = '01:30:01.6'         / Local time at start of observation             
# TRKFRAME= 'FK5     '           / Tracking co-ordinate                           
# DECTRACK=                   0. / Differential tracking rate Dec                 
# TRKEPOCH=         59253.469705 / Differential tracking reference epoch          
# RATRACK =                   0. / Differential tracking rate RA                  
# FRAME   = 'FK5     '           / Target coordinate system                       
# PMDEC   =                   0. / Proper Motion in Declination                   
# PMRA    =                   0. / Proper Motion in RA                            
# WAVELENG=                5200. / Effective Target Wavelength                    
# RAWIQ   = '70-percentile'      / Raw Image Quality                              
# RAWCC   = '50-percentile'      / Raw Cloud Cover                                
# RAWWV   = '50-percentile'      / Raw Water Vapour/Transparency                  
# RAWBG   = '80-percentile'      / Raw Background                                 
# RAWPIREQ= 'UNKNOWN '           / PI Requirements Met                            
# RAWGEMQA= 'UNKNOWN '           / Gemini Quality Assessment                      
# CGUIDMOD= 'Basic   '           / Carousel Mode                                  
# UT      = '11:30:01.6'         / UT at observation start                        
# M2BAFFLE= 'VISIBLE '           / Position of M2 baffle                          
# M2CENBAF= 'CLOSED  '           / Position of M2 central hole baffle             
# ST      = '10:23:18.9'         / Sidereal time at the start of the exposure     
# XOFFSET =  -0.0107731835044589 / Telescope offset in x in arcsec                
# YOFFSET =    0.338885289134196 / Telescope offset in y in arcsec                
# POFFSET =   -0.010300000029883 / Telescope offset in p in arcsec                
# QOFFSET =    0.338900000994058 / Telescope offset in q in arcsec                
# RAOFFSET=   -0.327761099965093 / Telescope offset in RA in arcsec               
# DECOFFSE=  -0.0867868770267742 / Telescope offset in DEC in arcsec              
# RATRGOFF=                   0. / Target offset in RA in arcsec                  
# DECTRGOF=                   0. / Target offset in DEC in arcsec                 
# PA      =               256.91 / Sky Position Angle at start of exposure        
# IAA     =               179.92 / Instrument Alignment Angle                     
# SFRT2   =              178.836 / Science fold rotation angle (degrees)          
# SFTILT  =                44.94 / Science fold tilt angle (degrees)              
# SFLINEAR=                  -2. / Science fold linear position (mm)              
# AOFOLD  = 'park-pos.'          / AO Pick-Off Mirror Position                    
# PWFS1_ST= 'parked  '           / PWFS1 probe state (frozen,guiding,parked)      
# PWFS2_ST= 'parked  '           / PWFS2 probe state (frozen,guiding,parked)      
# OIWFS_ST= 'guiding '           / OIWFS probe state (frozen,guiding,parked)      
# AOWFS_ST= 'parked  '           / AOWFS probe state (frozen,guiding,parked)      
# SCIBAND =                    1 / Science Ranking Band                           
# REQIQ   = 'Any     '           / Requested Image Quality                        
# REQCC   = '70-percentile'      / Requested Cloud Cover                          
# REQBG   = 'Any     '           / Requested Background                           
# REQWV   = 'Any     '           / Requested Water Vapour                         
# NUMREQTW=                    1 / Number of Requested Timing Window REQTW entries
# REQMINAM=                   1. / Requested Minimum Airmass                      
# REQMAXAM=                   2. / Requested Maximum Airmass                      
# REQTWS01= '2021-02-08T09:20:26' / Requested Timing Window 01 Start (UTC)        
# REQTWD01=               86400. / Requested Timing Window 01 Duration [seconds]  
# REQTWN01=                    0 / Requested Timing Window 01 Number of Repeats   
# REQTWP01=                   0. / Requested Timing Window 01 Repeat Period [secon
# OIARA   =         193.84960417 / RA of OIWFS guide star                         
# OIARV   =                   0. / OIWFS Heliocentric Radial Velocity             
# OIAWAVEL=                5000. / OIWFS Effective Target Wavelength              
# OIADEC  =          30.00665833 / Declination of OIWFS guide star                
# OIAEPOCH=                2000. / Epoch for OIWFS guide star coordinates         
# OIAEQUIN=                2000. / Equinox for OIWFS guide star coordinates       
# OIAFRAME= 'FK5     '           / OIWFS Target co-ordinate system                
# OIAOBJEC= '601-050592'         / Object Name for OIWFS, Chop A                  
# OIAPMDEC=                0.013 / OIWFS Proper Motion in Declination             
# OIAPMRA =             -0.00119 / OIWFS Proper Motion in RA                      
# OIAPARAL=                   0. / OIWFS Parallax of Target                       
# OIFREQ  =                 200. / OIWFS sampling frequency (Hz)                  
# HUMIDITY=                  13. / The Relative Humidity (fraction, 0..101).      
# TAMBIENT=                 -4.4 / The ambient temp (C).                          
# TAMBIEN2=                24.08 / The ambient temp (F).                          
# PRESSURE=            459.92164 / The atmospheric pressure (mm Hg).              
# PRESSUR2=               61300. / The atmospheric pressure (Pa).                 
# DEWPOINT=                -28.9 / The dew point (C).                             
# DEWPOIN2=               -20.02 / The dew point (F).                             
# WINDSPEE=                 11.5 / The wind speed (m/s).                          
# WINDSPE2=              25.7255 / The wind speed (mph).                          
# WINDDIRE=                 229. / The wind direction (degrees).                  
# INPORT  =                    5 / Number of ISS port where GMOS was located      
# GMOSCC  = 'GMOS-N (V7-13)'     / GMOS components controller s/w                 
# TIME-OBS= '11:30:01.6'         / Time of observation                            
# PREIMAGE=                    F / MOS pre-imaging                                
# CONID   = 'ARC-III '           / Detector controller ID                         
# DETECTOR= 'GMOS-N + Hamamatsu' / Detector name                                  
# DEWAR   = 'Lab Cryostat'       / Dewar name                                     
# ARRYTMPD=             -102.705 / Array temperature D (Celsius)                  
# ARRYTMPA=              -96.171 / Array temperature A (Celsius)                  
# ARRYTMPB=               -95.79 / Array temperature B (Celsius)                  
# ARRYTMPC=              -95.008 / Array temperature C (Celsius)                  
# ARRYTSET=               -102.7 / Array temperature Setpoint (Celsius)           
# DETSIZE = '[1:6144,1:4224]'    / Detector size                                  
# NCCDS   =                    3 / Number of CCD chips                            
# NAMPS   =                    4 / Number of amplifiers                           
# SHUTTER = 'OPEN    '           / Shutter state during observation               
# AMPINTEG=                11880 / Amplifier integration time                     
# OBSEPOCH=     2021.10603474441 / Epoch at start of exposure                     
# TIMESYS = 'UTC     '           / Time system used                               
# DATE-OBS= '2021-02-08'         / UT Date of observation (YYYY-MM-DD)            
# GMOSTHT = 'WARNING '           / Shutter health                                 
# NSUBEXP =                    1 / Number of sub exposures                        
# UTSTART = '11:30:05.3334'      / UT at observation start                        
# UTEND   = '11:45:05.3334'      / UT at observation end                          
# EXPTIME =                 900. / Exposure time in seconds                       
# ELAPSED =                 900. / Elapsed observation time in seconds            
# DARKTIME=      921.08335185051 / Dark current integration in seconds            
# MASKID  =             10005354 / Mask/IFU barcode                               
# MASKNAME= '1.0arcsec'          / Mask name                                      
# MASKTYP =                    1 / Mask/IFU type (0=none/-1=IFU/1=mask)           
# MASKLOC =                    0 / Mask/IFU location (-1=unknown/0=FP/1=cassette) 
# FILTER1 = 'open1-6 '           / Filter 1 name                                  
# FILTID1 =             20000018 / Filter 1 barcode                               
# FILTER2 = 'open2-8 '           / Filter 2 name                                  
# FILTID2 =             20000008 / Filter 2 barcode                               
# GRATING = 'B600+_G5307'        / Grating name                                   
# GRATID  =             30000018 / Grating barcode                                
# GRWLEN  =                 520. / Grating wavelength at slit (nm)                
# CENTWAVE=                 520. / Central wavelength (nm)                        
# GRORDER =                    1 / Grating order                                  
# GRTILT  =              55.0885 / Grating tilt angle (degrees)                   
# GRSTEP  =            5887.9004 / Requested grating motor step position          
# DTAX    =                 84.4 / Detector translation X position (microns)      
# DTAY    =                93.12 / Detector translation Y position (microns)      
# DTAZ    =                1908. / Detector translation Z position (microns)      
# DTAZST  =                1908. / Focus at observation start (microns)           
# DTAZEN  =                1908. / Focus at observation end (microns)             
# DTAZME  =                1800. / Mean focus during observation (microns)        
# DTMODE  = 'FOLLOW-XY'          / Detector translation stage mode                
# ADCMODE = '        '           / ADC mode                                       
# GMOSDC  = 'gmosdc-6.10'        / GMOS detector controller s/w                   
# DETTYPE = 'S10892-N'           / Detector array type                            
# DETID   = 'BI13-20-4k-1,BI12-09-4k-2,BI13-18-4k-2' / Chip IDs                   
# EXPOSURE=                 900. / Requested exposure time in seconds             
# ADCUSED =                    1 / ADC used? (0=yes/1=no)                         
# DETNROI =                    1 / No. regions of interest                        
# ADCENPST=                   0. / Start entrance prism angle of ADC              
# ADCENPEN=                   0. / End entrance prism angle of ADC                
# ADCENPME=                   0. / Mean entrance prism angle of ADC               
# ADCEXPST=                   0. / Start exit prism angle of ADC                  
# ADCEXPEN=                   0. / End exit prism angle of ADC                    
# ADCEXPME=                   0. / Mean exit prism angle of ADC                   
# ADCWLEN1=                   0. / Lower wavelength for ADC calculation           
# ADCWLEN2=                   0. / Upper wavelength for ADC calculation           
# DETRO1X =                    1 / ROI 1 X start                                  
# DETRO1XS=                 3072 / ROI 1 X size                                   
# DETRO1Y =                    1 / ROI 1 Y start                                  
# DETRO1YS=                 2112 / ROI 1 Y size                                   
# AIRMASS =                1.211 / Mean airmass for the observation               
# AMSTART =                1.235 / Airmass at start of exposure                   
# AMEND   =                1.187 / Airmass at end of exposure                     
# PROP_MD =                    F / Proprietary Metadata                           
# RELEASE = '2022-02-08'         / End of proprietary period YYY-MM-DD            
# NSCIEXT =                    1 / Number of science extensions                   
# PIXSCALE=               0.1614 / Pixel scale in Y in arcsec/pixel               
# NEXTEND =                    2 / Number of extensions                           
# OBSMODE = 'LONGSLIT'           / Observing mode (IMAGE|IFU|MOS|LONGSLIT)        
# GEM-TLM = '2021-02-10T03:58:07' / UT Last modification with GEMINI              
# GPREPARE= '2021-02-09T03:52:05' / UT Time stamp for GPREPARE                    
# TRIMMED = 'yes     '           / Overscan section trimmed                       
# GIREDUCE= '2021-02-09T03:52:20' / UT Time stamp for GIREDUCE                    
# GGAIN   = '2021-02-09T03:52:21' / UT Time stamp for GGAIN                       
# CTYPE1  = 'RA---TAN'           / R.A. in tangent plane projection               
# CTYPE2  = 'DEC--TAN'           / DEC. in tangent plane projection               
# CRPIX1  =        1568.29693521 / Ref pix of axis 1                              
# CRPIX2  =     1044.27815713867 / Ref pix of axis 2                              
# CRVAL1  =     193.878228075338 / RA at Ref pix in decimal degrees               
# CRVAL2  =      30.027978653149 / DEC at Ref pix in decimal degrees              
# CD1_1   = 1.02021037022511E-05 / WCS matrix element 1 1                         
# CD1_2   = 4.38056506917346E-05 / WCS matrix element 1 2                         
# CD2_1   =   -4.37977808402E-05 / WCS matrix element 2 1                         
# CD2_2   = 1.02058175997759E-05 / WCS matrix element 2 2                         
# CCDSUM  = '2 2     '           / CCD sum                                        
# GAIN    =                  1.0 / Amplifier gain                                 
# GAINMULT=                 1.65 / Gain multiplication                            
# RDNOISE =                 3.98 / Readout noise                                  
# RADECSYS= 'FK5     '           / R.A./DEC. coordinate system reference          
# EQUINOX =                2000. / Equinox of coordinate system                   
# MJD-OBS =     59253.4799876656 / MJD of start of obseration                     
# DISPAXIS=                    1 / Dispersion Axis                                
# GMOSAIC = '2021-02-09T03:52:22' / UT Time stamp for GMOSAIC                     
# GMSINTER= 'linear  '           / Interpolant used by GMOSAIC                    
# WMEF    = '2021-02-10T03:58:06' / UT Time stamp for WMEF                        
# GSFLATIM= 'flat1.fits'         / Flatfield Image used by gsreduce               
# GSREDUCE= '2021-02-09T03:52:23' / UT Time stamp for GSREDUCE                    
# GSAPPWAV= '2021-02-09T04:05:12' / UT Time stamp for GSAPPWAVE                   
# GSTRANSF= '2021-02-10T02:31:36' / UT Time stamp for GSTRANSFORM                 
# GSEXTRAC= '2021-02-10T03:52:13' / UT Time stamp for GSEXTRACT                   
# GSCALIBR= '2021-02-10T03:58:07' / UT Time stamp for GSCALIBRATE                 
# END
#
# SIMPLE  =                    T / Fits standard                                  
# BITPIX  =                   16 / Bits per pixel                                 
# NAXIS   =                    0 / Number of axes                                 
# EXTEND  =                    T / File may contain extensions                    
# ORIGIN  = 'NOAO-IRAF FITS Image Kernel July 2003' / FITS file originator        
# DATE    = '2021-02-09T03:54:01' / Date FITS file was generated                  
# IRAF-TLM= '2021-02-10T03:58:40' / Time of last modification                     
# COMMENT   FITS (Flexible Image Transport System) format is defined in 'Astronomy
# COMMENT   and Astrophysics', volume 376, page 359; bibcode: 2001A&A...376..359H 
# INSTRUME= 'GMOS-N  '           / Instrument used to acquire data                
# OBJECT  = 'ZTF21aaiaqhh'       / Object Name                                    
# OBSTYPE = 'OBJECT  '           / Observation type                               
# OBSCLASS= 'science '           / Observe class                                  
# GEMPRGID= 'GN-2021A-Q-901'     / Gemini programme ID                            
# OBSID   = 'GN-2021A-Q-901-69'  / Observation ID / Data label                    
# DATALAB = 'GN-2021A-Q-901-69-005' / DHS data label                              
# OBSERVER= 'tgeballe'           / Observer                                       
# OBSERVAT= 'Gemini-North'       / Name of telescope (Gemini-North|Gemini-South)  
# TELESCOP= 'Gemini-North'       / Gemini-North                                   
# PARALLAX=                   0. / Parallax of Target                             
# RADVEL  =                   0. / Heliocentric Radial Velocity                   
# EPOCH   =                2000. / Epoch for Target coordinates                   
# EQUINOX =                2000. / Equinox of coordinate system                   
# TRKEQUIN=                2000. / Tracking equinox                               
# SSA     = 'jcortes '           / SSA                                            
# RA      =         193.87833333 / Right Ascension                                
# DEC     =          30.02800278 / Declination of Target                          
# ELEVATIO=     57.8002680555556 / Current Elevation                              
# AZIMUTH =     65.1005986111111 / Current Azimuth                                
# CRPA    =    -2.76396785550923 / Current Cass Rotator Position Angle            
# HA      = '-02:15:37.55'       / Telescope hour angle                           
# LT      = '01:47:34.6'         / Local time at start of observation             
# TRKFRAME= 'FK5     '           / Tracking co-ordinate                           
# DECTRACK=                   0. / Differential tracking rate Dec                 
# TRKEPOCH=         59253.469705 / Differential tracking reference epoch          
# RATRACK =                   0. / Differential tracking rate RA                  
# FRAME   = 'FK5     '           / Target coordinate system                       
# PMDEC   =                   0. / Proper Motion in Declination                   
# PMRA    =                   0. / Proper Motion in RA                            
# WAVELENG=                5250. / Effective Target Wavelength                    
# RAWIQ   = '70-percentile'      / Raw Image Quality                              
# RAWCC   = '50-percentile'      / Raw Cloud Cover                                
# RAWWV   = '50-percentile'      / Raw Water Vapour/Transparency                  
# RAWBG   = '80-percentile'      / Raw Background                                 
# RAWPIREQ= 'UNKNOWN '           / PI Requirements Met                            
# RAWGEMQA= 'UNKNOWN '           / Gemini Quality Assessment                      
# CGUIDMOD= 'Basic   '           / Carousel Mode                                  
# UT      = '11:47:35.1'         / UT at observation start                        
# M2BAFFLE= 'VISIBLE '           / Position of M2 baffle                          
# M2CENBAF= 'CLOSED  '           / Position of M2 central hole baffle             
# ST      = '10:40:55.3'         / Sidereal time at the start of the exposure     
# XOFFSET =  -0.0317171277377085 / Telescope offset in x in arcsec                
# YOFFSET =     15.3388706675004 / Telescope offset in y in arcsec                
# POFFSET =  -0.0103000000298829 / Telescope offset in p in arcsec                
# QOFFSET =     15.3389000009941 / Telescope offset in q in arcsec                
# RAOFFSET=    -14.9379937583609 / Telescope offset in RA in arcsec               
# DECOFFSE=    -3.48400657371165 / Telescope offset in DEC in arcsec              
# RATRGOFF=                   0. / Target offset in RA in arcsec                  
# DECTRGOF=                   0. / Target offset in DEC in arcsec                 
# PA      =               256.91 / Sky Position Angle at start of exposure        
# IAA     =               179.92 / Instrument Alignment Angle                     
# SFRT2   =              178.837 / Science fold rotation angle (degrees)          
# SFTILT  =                44.94 / Science fold tilt angle (degrees)              
# SFLINEAR=                  -2. / Science fold linear position (mm)              
# AOFOLD  = 'park-pos.'          / AO Pick-Off Mirror Position                    
# PWFS1_ST= 'parked  '           / PWFS1 probe state (frozen,guiding,parked)      
# PWFS2_ST= 'parked  '           / PWFS2 probe state (frozen,guiding,parked)      
# OIWFS_ST= 'guiding '           / OIWFS probe state (frozen,guiding,parked)      
# AOWFS_ST= 'parked  '           / AOWFS probe state (frozen,guiding,parked)      
# SCIBAND =                    1 / Science Ranking Band                           
# REQIQ   = 'Any     '           / Requested Image Quality                        
# REQCC   = '70-percentile'      / Requested Cloud Cover                          
# REQBG   = 'Any     '           / Requested Background                           
# REQWV   = 'Any     '           / Requested Water Vapour                         
# NUMREQTW=                    1 / Number of Requested Timing Window REQTW entries
# REQMINAM=                   1. / Requested Minimum Airmass                      
# REQMAXAM=                   2. / Requested Maximum Airmass                      
# REQTWS01= '2021-02-08T09:20:26' / Requested Timing Window 01 Start (UTC)        
# REQTWD01=               86400. / Requested Timing Window 01 Duration [seconds]  
# REQTWN01=                    0 / Requested Timing Window 01 Number of Repeats   
# REQTWP01=                   0. / Requested Timing Window 01 Repeat Period [secon
# OIARA   =         193.84960417 / RA of OIWFS guide star                         
# OIARV   =                   0. / OIWFS Heliocentric Radial Velocity             
# OIAWAVEL=                5000. / OIWFS Effective Target Wavelength              
# OIADEC  =          30.00665833 / Declination of OIWFS guide star                
# OIAEPOCH=                2000. / Epoch for OIWFS guide star coordinates         
# OIAEQUIN=                2000. / Equinox for OIWFS guide star coordinates       
# OIAFRAME= 'FK5     '           / OIWFS Target co-ordinate system                
# OIAOBJEC= '601-050592'         / Object Name for OIWFS, Chop A                  
# OIAPMDEC=                0.013 / OIWFS Proper Motion in Declination             
# OIAPMRA =             -0.00119 / OIWFS Proper Motion in RA                      
# OIAPARAL=                   0. / OIWFS Parallax of Target                       
# OIFREQ  =                 200. / OIWFS sampling frequency (Hz)                  
# HUMIDITY=                  12. / The Relative Humidity (fraction, 0..101).      
# TAMBIENT=                 -4.2 / The ambient temp (C).                          
# TAMBIEN2=                24.44 / The ambient temp (F).                          
# PRESSURE=            459.92164 / The atmospheric pressure (mm Hg).              
# PRESSUR2=               61300. / The atmospheric pressure (Pa).                 
# DEWPOINT=                -29.8 / The dew point (C).                             
# DEWPOIN2=               -21.64 / The dew point (F).                             
# WINDSPEE=                  9.9 / The wind speed (m/s).                          
# WINDSPE2=              22.1463 / The wind speed (mph).                          
# WINDDIRE=                 108. / The wind direction (degrees).                  
# INPORT  =                    5 / Number of ISS port where GMOS was located      
# GMOSCC  = 'GMOS-N (V7-13)'     / GMOS components controller s/w                 
# TIME-OBS= '11:47:35.1'         / Time of observation                            
# PREIMAGE=                    F / MOS pre-imaging                                
# CONID   = 'ARC-III '           / Detector controller ID                         
# DETECTOR= 'GMOS-N + Hamamatsu' / Detector name                                  
# DEWAR   = 'Lab Cryostat'       / Dewar name                                     
# ARRYTMPD=             -102.683 / Array temperature D (Celsius)                  
# ARRYTMPA=               -96.32 / Array temperature A (Celsius)                  
# ARRYTMPB=              -95.943 / Array temperature B (Celsius)                  
# ARRYTMPC=              -95.157 / Array temperature C (Celsius)                  
# ARRYTSET=               -102.7 / Array temperature Setpoint (Celsius)           
# DETSIZE = '[1:6144,1:4224]'    / Detector size                                  
# NCCDS   =                    3 / Number of CCD chips                            
# NAMPS   =                    4 / Number of amplifiers                           
# SHUTTER = 'OPEN    '           / Shutter state during observation               
# AMPINTEG=                11880 / Amplifier integration time                     
# OBSEPOCH=     2021.10606813468 / Epoch at start of exposure                     
# TIMESYS = 'UTC     '           / Time system used                               
# DATE-OBS= '2021-02-08'         / UT Date of observation (YYYY-MM-DD)            
# GMOSTHT = 'WARNING '           / Shutter health                                 
# NSUBEXP =                    1 / Number of sub exposures                        
# UTSTART = '11:47:39.500'       / UT at observation start                        
# UTEND   = '12:02:39.500'       / UT at observation end                          
# EXPTIME =                 900. / Exposure time in seconds                       
# ELAPSED =                 900. / Elapsed observation time in seconds            
# DARKTIME=     921.083353996277 / Dark current integration in seconds            
# MASKID  =             10005354 / Mask/IFU barcode                               
# MASKNAME= '1.0arcsec'          / Mask name                                      
# MASKTYP =                    1 / Mask/IFU type (0=none/-1=IFU/1=mask)           
# MASKLOC =                    0 / Mask/IFU location (-1=unknown/0=FP/1=cassette) 
# FILTER1 = 'open1-6 '           / Filter 1 name                                  
# FILTID1 =             20000018 / Filter 1 barcode                               
# FILTER2 = 'open2-8 '           / Filter 2 name                                  
# FILTID2 =             20000008 / Filter 2 barcode                               
# GRATING = 'B600+_G5307'        / Grating name                                   
# GRATID  =             30000018 / Grating barcode                                
# GRWLEN  =                 525. / Grating wavelength at slit (nm)                
# CENTWAVE=                 525. / Central wavelength (nm)                        
# GRORDER =                    1 / Grating order                                  
# GRTILT  =              54.9922 / Grating tilt angle (degrees)                   
# GRSTEP  =            5877.3185 / Requested grating motor step position          
# DTAX    =                 84.4 / Detector translation X position (microns)      
# DTAY    =                92.16 / Detector translation Y position (microns)      
# DTAZ    =                1902. / Detector translation Z position (microns)      
# DTAZST  =                1902. / Focus at observation start (microns)           
# DTAZEN  =                1902. / Focus at observation end (microns)             
# DTAZME  =                1800. / Mean focus during observation (microns)        
# DTMODE  = 'FOLLOW-XY'          / Detector translation stage mode                
# ADCMODE = '        '           / ADC mode                                       
# GMOSDC  = 'gmosdc-6.10'        / GMOS detector controller s/w                   
# DETTYPE = 'S10892-N'           / Detector array type                            
# DETID   = 'BI13-20-4k-1,BI12-09-4k-2,BI13-18-4k-2' / Chip IDs                   
# EXPOSURE=                 900. / Requested exposure time in seconds             
# ADCUSED =                    1 / ADC used? (0=yes/1=no)                         
# DETNROI =                    1 / No. regions of interest                        
# ADCENPST=                   0. / Start entrance prism angle of ADC              
# ADCENPEN=                   0. / End entrance prism angle of ADC                
# ADCENPME=                   0. / Mean entrance prism angle of ADC               
# ADCEXPST=                   0. / Start exit prism angle of ADC                  
# ADCEXPEN=                   0. / End exit prism angle of ADC                    
# ADCEXPME=                   0. / Mean exit prism angle of ADC                   
# ADCWLEN1=                   0. / Lower wavelength for ADC calculation           
# ADCWLEN2=                   0. / Upper wavelength for ADC calculation           
# DETRO1X =                    1 / ROI 1 X start                                  
# DETRO1XS=                 3072 / ROI 1 X size                                   
# DETRO1Y =                    1 / ROI 1 Y start                                  
# DETRO1YS=                 2112 / ROI 1 Y size                                   
# AIRMASS =                1.161 / Mean airmass for the observation               
# AMSTART =                1.181 / Airmass at start of exposure                   
# AMEND   =                1.142 / Airmass at end of exposure                     
# PROP_MD =                    F / Proprietary Metadata                           
# RELEASE = '2022-02-08'         / End of proprietary period YYY-MM-DD            
# NSCIEXT =                    1 / Number of science extensions                   
# PIXSCALE=               0.1614 / Pixel scale in Y in arcsec/pixel               
# NEXTEND =                    2 / Number of extensions                           
# OBSMODE = 'LONGSLIT'           / Observing mode (IMAGE|IFU|MOS|LONGSLIT)        
# GEM-TLM = '2021-02-10T03:58:12' / UT Last modification with GEMINI              
# GPREPARE= '2021-02-09T03:54:01' / UT Time stamp for GPREPARE                    
# TRIMMED = 'yes     '           / Overscan section trimmed                       
# GIREDUCE= '2021-02-09T03:54:16' / UT Time stamp for GIREDUCE                    
# GGAIN   = '2021-02-09T03:54:17' / UT Time stamp for GGAIN                       
# CTYPE1  = 'RA---TAN'           / R.A. in tangent plane projection               
# CTYPE2  = 'DEC--TAN'           / DEC. in tangent plane projection               
# CRPIX1  =        1568.29694829 / Ref pix of axis 1                              
# CRPIX2  =      1044.2781897619 / Ref pix of axis 2                              
# CRVAL1  =     193.873539128796 / RA at Ref pix in decimal degrees               
# CRVAL2  =     30.0270345135761 / DEC at Ref pix in decimal degrees              
# CD1_1   = 1.02035833661711E-05 / WCS matrix element 1 1                         
# CD1_2   = 4.38041749841796E-05 / WCS matrix element 1 2                         
# CD2_1   = -4.37973868952812E-05 / WCS matrix element 2 1                        
# CD2_2   = 1.02076139686989E-05 / WCS matrix element 2 2                         
# CCDSUM  = '2 2     '           / CCD sum                                        
# GAIN    =                  1.0 / Amplifier gain                                 
# GAINMULT=                 1.65 / Gain multiplication                            
# RDNOISE =                 3.98 / Readout noise                                  
# RADECSYS= 'FK5     '           / R.A./DEC. coordinate system reference          
# EQUINOX =                2000. / Equinox of coordinate system                   
# MJD-OBS =     59253.4921835629 / MJD of start of obseration                     
# DISPAXIS=                    1 / Dispersion Axis                                
# GMOSAIC = '2021-02-09T03:54:18' / UT Time stamp for GMOSAIC                     
# GMSINTER= 'linear  '           / Interpolant used by GMOSAIC                    
# WMEF    = '2021-02-10T03:58:12' / UT Time stamp for WMEF                        
# GSFLATIM= 'flat2.fits'         / Flatfield Image used by gsreduce               
# GSREDUCE= '2021-02-09T03:54:19' / UT Time stamp for GSREDUCE                    
# GSAPPWAV= '2021-02-09T04:05:19' / UT Time stamp for GSAPPWAVE                   
# GSTRANSF= '2021-02-10T02:31:44' / UT Time stamp for GSTRANSFORM                 
# GSEXTRAC= '2021-02-10T03:53:18' / UT Time stamp for GSEXTRACT                   
# GSCALIBR= '2021-02-10T03:58:12' / UT Time stamp for GSCALIBRATE                 
# END
3690.4969    1.2062e-15
3691.5116    1.2583e-15
3692.5263    1.2160e-15
3693.5410    1.2515e-15
3694.5557    1.2170e-15
3695.5704    1.1982e-15
3696.5851    1.2013e-15
3697.5998    1.1749e-15
3698.6145    1.1222e-15
3699.6292    1.0591e-15
3700.6439    1.1108e-15
3701.6586    1.2535e-15
3702.6733    1.2410e-15
3703.6880    1.1989e-15
3704.7027    1.2128e-15
3705.7174    1.2007e-15
3706.7321    1.1665e-15
3707.7468    1.2539e-15
3708.7615    1.2258e-15
3709.7762    1.2016e-15
3710.7909    1.0632e-15
3711.8056    1.1313e-15
3712.8203    1.1150e-15
3713.8350    1.1372e-15
3714.8497    1.1833e-15
3715.8644    1.1680e-15
3716.8791    1.1435e-15
3717.8938    1.1385e-15
3718.9086    1.2179e-15
3719.9233    1.1843e-15
3720.9380    1.2372e-15
3721.9527    1.1506e-15
3722.9674    1.1240e-15
3723.9821    1.0985e-15
3724.9968    1.0737e-15
3726.0115    1.0678e-15
3727.0262    1.1388e-15
3728.0409    1.1482e-15
3729.0556    1.1103e-15
3730.0703    1.1081e-15
3731.0850    1.1503e-15
3732.0997    1.1133e-15
3733.1144    1.0260e-15
3734.1291    1.0272e-15
3735.1438    1.0452e-15
3736.1585    1.0245e-15
3737.1732    1.1048e-15
3738.1879    1.1219e-15
3739.2026    1.0994e-15
3740.2173    1.0692e-15
3741.2320    1.0078e-15
3742.2467    1.0959e-15
3743.2614    1.1490e-15
3744.2761    1.1673e-15
3745.2908    1.0756e-15
3746.3055    1.0454e-15
3747.3202    1.1025e-15
3748.3349    1.1036e-15
3749.3496    1.0614e-15
3750.3643    9.8721e-16
3751.3790    1.1148e-15
3752.3937    1.1520e-15
3753.4085    1.0497e-15
3754.4232    1.0623e-15
3755.4379    1.1216e-15
3756.4526    1.0972e-15
3757.4673    1.0404e-15
3758.4820    1.0502e-15
3759.4967    1.0315e-15
3760.5114    1.0246e-15
3761.5261    1.1281e-15
3762.5408    1.1628e-15
3763.5555    1.0956e-15
3764.5702    1.0632e-15
3765.5849    1.0943e-15
3766.5996    1.0772e-15
3767.6143    1.0603e-15
3768.6290    1.0631e-15
3769.6437    1.0265e-15
3770.6584    1.0340e-15
3771.6731    1.1096e-15
3772.6878    1.1584e-15
3773.7025    1.1578e-15
3774.7172    1.0749e-15
3775.7319    1.0930e-15
3776.7466    1.1515e-15
3777.7613    1.1627e-15
3778.7760    1.0995e-15
3779.7907    1.1057e-15
3780.8054    1.1546e-15
3781.8201    1.1186e-15
3782.8348    1.0484e-15
3783.8495    1.0415e-15
3784.8642    1.0529e-15
3785.8789    1.0493e-15
3786.8936    1.0492e-15
3787.9083    1.0359e-15
3788.9231    1.0787e-15
3789.9378    1.0603e-15
3790.9525    1.0351e-15
3791.9672    1.0807e-15
3792.9819    1.1137e-15
3793.9966    1.1172e-15
3795.0113    1.0685e-15
3796.0260    1.0593e-15
3797.0407    1.0548e-15
3798.0554    1.0596e-15
3799.0701    1.0803e-15
3800.0848    1.1020e-15
3801.0995    1.1509e-15
3802.1142    1.2067e-15
3803.1289    1.3423e-15
3804.1436    1.4317e-15
3805.1583    1.3802e-15
3806.1730    1.3315e-15
3807.1877    1.2862e-15
3808.2024    1.2159e-15
3809.2171    1.1049e-15
3810.2318    1.0442e-15
3811.2465    1.0298e-15
3812.2612    1.0694e-15
3813.2759    1.0489e-15
3814.2906    1.0098e-15
3815.3053    1.0846e-15
3816.3200    1.1287e-15
3817.3347    1.1053e-15
3818.3494    1.0759e-15
3819.3641    1.0794e-15
3820.3788    1.0804e-15
3821.3935    1.0092e-15
3822.4082    9.8343e-16
3823.4230    1.0310e-15
3824.4377    1.0320e-15
3825.4524    1.0595e-15
3826.4671    1.0264e-15
3827.4818    9.8974e-16
3828.4965    9.8502e-16
3829.5112    1.0399e-15
3830.5259    1.0399e-15
3831.5406    1.0499e-15
3832.5553    1.0328e-15
3833.5700    1.0357e-15
3834.5847    9.8857e-16
3835.5994    9.6997e-16
3836.6141    9.8029e-16
3837.6288    1.0227e-15
3838.6435    1.0195e-15
3839.6582    1.0270e-15
3840.6729    1.0324e-15
3841.6876    1.0341e-15
3842.7023    1.0388e-15
3843.7170    1.0661e-15
3844.7317    1.0805e-15
3845.7464    1.0292e-15
3846.7611    9.9611e-16
3847.7758    1.0448e-15
3848.7905    1.0513e-15
3849.8052    1.0327e-15
3850.8199    1.0255e-15
3851.8346    1.0431e-15
3852.8493    1.0391e-15
3853.8640    1.0460e-15
3854.8787    1.0582e-15
3855.8934    1.0133e-15
3856.9081    1.0065e-15
3857.9228    1.0225e-15
3858.9376    1.0112e-15
3859.9523    1.0130e-15
3860.9670    9.8952e-16
3861.9817    1.0240e-15
3862.9964    1.0469e-15
3864.0111    1.0428e-15
3865.0258    1.0439e-15
3866.0405    1.0506e-15
3867.0552    1.0576e-15
3868.0699    1.0251e-15
3869.0846    1.0452e-15
3870.0993    1.0187e-15
3871.1140    9.8455e-16
3872.1287    9.8559e-16
3873.1434    1.0093e-15
3874.1581    9.9380e-16
3875.1728    9.8967e-16
3876.1875    1.0100e-15
3877.2022    1.0101e-15
3878.2169    9.9120e-16
3879.2316    9.8594e-16
3880.2463    9.8341e-16
3881.2610    9.9380e-16
3882.2757    9.8936e-16
3883.2904    9.9265e-16
3884.3051    1.0011e-15
3885.3198    1.0146e-15
3886.3345    1.0228e-15
3887.3492    1.0166e-15
3888.3639    1.0043e-15
3889.3786    1.0030e-15
3890.3933    1.0086e-15
3891.4080    9.8268e-16
3892.4227    9.8754e-16
3893.4375    1.0142e-15
3894.4522    1.0049e-15
3895.4669    9.8168e-16
3896.4816    1.0031e-15
3897.4963    1.0122e-15
3898.5110    9.9223e-16
3899.5257    9.9223e-16
3900.5404    9.4676e-16
3901.5551    9.3281e-16
3902.5698    9.9302e-16
3903.5845    9.8196e-16
3904.5992    9.5872e-16
3905.6139    9.6176e-16
3906.6286    9.8321e-16
3907.6433    9.5480e-16
3908.6580    9.7457e-16
3909.6727    9.9025e-16
3910.6874    9.6433e-16
3911.7021    9.6783e-16
3912.7168    9.5273e-16
3913.7315    9.5265e-16
3914.7462    9.7034e-16
3915.7609    9.8925e-16
3916.7756    1.0326e-15
3917.7903    1.0010e-15
3918.8050    9.6975e-16
3919.8197    9.7315e-16
3920.8344    9.5680e-16
3921.8491    9.8040e-16
3922.8638    9.7772e-16
3923.8785    9.7162e-16
3924.8932    9.8157e-16
3925.9079    9.7126e-16
3926.9226    9.6132e-16
3927.9373    9.6937e-16
3928.9521    9.6077e-16
3929.9668    9.6223e-16
3930.9815    1.0040e-15
3931.9962    9.7168e-16
3933.0109    9.5668e-16
3934.0256    9.4609e-16
3935.0403    9.3282e-16
3936.0550    9.4368e-16
3937.0697    9.6556e-16
3938.0844    9.4634e-16
3939.0991    9.4579e-16
3940.1138    9.5744e-16
3941.1285    9.5283e-16
3942.1432    9.3204e-16
3943.1579    9.4124e-16
3944.1726    9.2372e-16
3945.1873    9.4107e-16
3946.2020    9.6349e-16
3947.2167    9.7212e-16
3948.2314    9.5771e-16
3949.2461    9.5580e-16
3950.2608    9.5156e-16
3951.2755    9.3023e-16
3952.2902    9.3939e-16
3953.3049    9.3382e-16
3954.3196    9.0189e-16
3955.3343    9.4909e-16
3956.3490    9.4467e-16
3957.3637    9.2364e-16
3958.3784    9.1886e-16
3959.3931    9.0975e-16
3960.4078    9.2005e-16
3961.4225    9.4123e-16
3962.4372    9.3767e-16
3963.4520    9.2672e-16
3964.4667    9.3026e-16
3965.4814    9.4779e-16
3966.4961    9.3183e-16
3967.5108    9.2318e-16
3968.5255    9.1312e-16
3969.5402    9.4807e-16
3970.5549    9.4923e-16
3971.5696    9.1219e-16
3972.5843    8.9186e-16
3973.5990    8.8105e-16
3974.6137    9.0419e-16
3975.6284    9.1862e-16
3976.6431    9.0806e-16
3977.6578    8.8282e-16
3978.6725    8.9407e-16
3979.6872    8.9323e-16
3980.7019    8.8206e-16
3981.7166    9.0577e-16
3982.7313    9.0216e-16
3983.7460    9.3254e-16
3984.7607    9.3931e-16
3985.7754    8.9249e-16
3986.7901    8.9202e-16
3987.8048    8.6945e-16
3988.8195    8.7092e-16
3989.8342    9.2258e-16
3990.8489    9.3431e-16
3991.8636    9.0634e-16
3992.8783    9.0809e-16
3993.8930    8.9998e-16
3994.9077    8.9051e-16
3995.9224    8.7216e-16
3996.9371    9.0146e-16
3997.9518    8.8457e-16
3998.9666    8.6774e-16
3999.9813    8.7655e-16
4000.9960    8.9971e-16
4002.0107    9.0507e-16
4003.0254    8.9478e-16
4004.0401    8.7147e-16
4005.0548    8.8156e-16
4006.0695    8.6556e-16
4007.0842    8.5598e-16
4008.0989    8.6190e-16
4009.1136    8.8200e-16
4010.1283    8.8843e-16
4011.1430    8.9496e-16
4012.1577    8.7253e-16
4013.1724    8.5816e-16
4014.1871    8.5219e-16
4015.2018    8.7206e-16
4016.2165    8.5720e-16
4017.2312    8.5189e-16
4018.2459    8.5920e-16
4019.2606    8.6256e-16
4020.2753    8.7906e-16
4021.2900    8.7964e-16
4022.3047    8.6055e-16
4023.3194    8.5192e-16
4024.3341    8.3975e-16
4025.3488    8.7618e-16
4026.3635    9.0327e-16
4027.3782    9.0801e-16
4028.3929    8.8573e-16
4029.4076    8.7400e-16
4030.4223    8.8885e-16
4031.4370    8.5907e-16
4032.4517    8.4748e-16
4033.4665    8.6315e-16
4034.4812    8.6480e-16
4035.4959    8.9651e-16
4036.5106    8.9270e-16
4037.5253    8.8012e-16
4038.5400    8.6706e-16
4039.5547    8.2458e-16
4040.5694    8.5189e-16
4041.5841    8.8055e-16
4042.5988    8.7575e-16
4043.6135    8.8297e-16
4044.6282    8.7438e-16
4045.6429    8.5946e-16
4046.6576    8.4465e-16
4047.6723    8.5749e-16
4048.6870    8.7369e-16
4049.7017    8.9016e-16
4050.7164    8.9469e-16
4051.7311    8.8256e-16
4052.7458    8.9621e-16
4053.7605    9.1689e-16
4054.7752    8.9103e-16
4055.7899    8.8543e-16
4056.8046    8.9412e-16
4057.8193    8.8968e-16
4058.8340    8.8770e-16
4059.8487    8.8333e-16
4060.8634    8.7789e-16
4061.8781    8.7016e-16
4062.8928    8.6496e-16
4063.9075    8.7492e-16
4064.9222    8.6213e-16
4065.9369    8.6158e-16
4066.9516    8.6880e-16
4067.9663    8.7053e-16
4068.9811    8.8183e-16
4069.9958    8.8390e-16
4071.0105    8.7467e-16
4072.0252    8.5758e-16
4073.0399    8.7287e-16
4074.0546    8.8511e-16
4075.0693    9.0420e-16
4076.0840    8.8891e-16
4077.0987    8.5661e-16
4078.1134    8.4123e-16
4079.1281    8.5023e-16
4080.1428    8.7981e-16
4081.1575    8.5889e-16
4082.1722    8.7542e-16
4083.1869    9.0033e-16
4084.2016    8.9861e-16
4085.2163    8.6511e-16
4086.2310    8.6683e-16
4087.2457    9.0424e-16
4088.2604    8.7515e-16
4089.2751    8.1852e-16
4090.2898    8.4709e-16
4091.3045    8.7087e-16
4092.3192    8.4705e-16
4093.3339    8.4255e-16
4094.3486    8.7781e-16
4095.3633    8.7283e-16
4096.3780    9.0858e-16
4097.3927    8.8231e-16
4098.4074    8.7573e-16
4099.4221    8.7134e-16
4100.4368    8.7458e-16
4101.4515    8.7548e-16
4102.4662    8.4666e-16
4103.4810    8.6108e-16
4104.4957    8.8289e-16
4105.5104    8.7327e-16
4106.5251    8.4996e-16
4107.5398    8.3635e-16
4108.5545    8.6039e-16
4109.5692    8.7006e-16
4110.5839    8.5630e-16
4111.5986    8.4102e-16
4112.6133    8.3871e-16
4113.6280    8.4902e-16
4114.6427    8.3483e-16
4115.6574    8.3222e-16
4116.6721    8.4436e-16
4117.6868    8.4339e-16
4118.7015    8.4982e-16
4119.7162    8.6651e-16
4120.7309    8.7091e-16
4121.7456    8.5354e-16
4122.7603    8.2816e-16
4123.7750    8.1978e-16
4124.7897    8.2534e-16
4125.8044    8.2702e-16
4126.8191    8.3371e-16
4127.8338    8.3481e-16
4128.8485    8.3522e-16
4129.8632    8.3635e-16
4130.8779    8.3745e-16
4131.8926    8.5210e-16
4132.9073    8.5928e-16
4133.9220    8.4289e-16
4134.9367    8.3525e-16
4135.9514    8.1485e-16
4136.9661    8.3403e-16
4137.9808    8.3758e-16
4138.9956    8.1713e-16
4140.0103    8.5155e-16
4141.0250    8.1617e-16
4142.0397    8.3122e-16
4143.0544    8.5145e-16
4144.0691    8.2899e-16
4145.0838    8.0028e-16
4146.0985    8.1483e-16
4147.1132    8.4578e-16
4148.1279    8.5225e-16
4149.1426    8.4449e-16
4150.1573    8.3724e-16
4151.1720    8.1952e-16
4152.1867    8.2234e-16
4153.2014    8.2176e-16
4154.2161    8.4142e-16
4155.2308    8.3197e-16
4156.2455    8.1602e-16
4157.2602    8.3628e-16
4158.2749    8.3353e-16
4159.2896    8.2943e-16
4160.3043    8.2744e-16
4161.3190    8.3045e-16
4162.3337    8.4352e-16
4163.3484    8.3392e-16
4164.3631    8.1202e-16
4165.3778    8.2515e-16
4166.3925    8.4808e-16
4167.4072    8.3649e-16
4168.4219    8.2323e-16
4169.4366    8.2364e-16
4170.4513    8.3821e-16
4171.4660    8.4078e-16
4172.4807    8.3279e-16
4173.4955    8.2494e-16
4174.5102    8.0636e-16
4175.5249    8.1444e-16
4176.5396    8.1432e-16
4177.5543    8.1641e-16
4178.5690    8.3129e-16
4179.5837    8.2838e-16
4180.5984    8.1623e-16
4181.6131    8.2624e-16
4182.6278    8.1379e-16
4183.6425    8.1811e-16
4184.6572    8.5081e-16
4185.6719    8.5711e-16
4186.6866    8.5960e-16
4187.7013    8.6987e-16
4188.7160    8.4986e-16
4189.7307    8.0887e-16
4190.7454    8.2261e-16
4191.7601    8.2636e-16
4192.7748    8.0388e-16
4193.7895    7.9068e-16
4194.8042    7.9756e-16
4195.8189    8.0588e-16
4196.8336    8.2240e-16
4197.8483    8.2682e-16
4198.8630    7.9073e-16
4199.8777    7.8912e-16
4200.8924    7.8519e-16
4201.9071    7.9726e-16
4202.9218    8.0500e-16
4203.9365    8.0321e-16
4204.9512    8.1181e-16
4205.9659    8.1990e-16
4206.9806    8.1687e-16
4207.9954    8.0959e-16
4209.0101    8.0142e-16
4210.0248    8.0442e-16
4211.0395    7.9189e-16
4212.0542    7.9265e-16
4213.0689    7.7835e-16
4214.0836    7.8053e-16
4215.0983    7.7467e-16
4216.1130    7.8910e-16
4217.1277    7.9377e-16
4218.1424    7.8418e-16
4219.1571    7.7618e-16
4220.1718    7.8671e-16
4221.1865    7.9832e-16
4222.2012    8.1879e-16
4223.2159    8.0312e-16
4224.2306    7.9218e-16
4225.2453    7.9586e-16
4226.2600    7.9287e-16
4227.2747    7.9275e-16
4228.2894    7.6916e-16
4229.3041    7.7336e-16
4230.3188    7.8763e-16
4231.3335    7.9184e-16
4232.3482    7.8335e-16
4233.3629    7.8055e-16
4234.3776    7.9598e-16
4235.3923    7.9071e-16
4236.4070    7.7055e-16
4237.4217    7.8261e-16
4238.4364    7.8867e-16
4239.4511    7.7060e-16
4240.4658    7.6480e-16
4241.4805    7.6955e-16
4242.4952    7.7828e-16
4243.5100    7.9662e-16
4244.5247    7.7181e-16
4245.5394    7.6473e-16
4246.5541    7.7829e-16
4247.5688    7.7627e-16
4248.5835    7.9549e-16
4249.5982    7.7981e-16
4250.6129    7.7195e-16
4251.6276    7.7877e-16
4252.6423    7.8634e-16
4253.6570    7.8250e-16
4254.6717    7.7995e-16
4255.6864    7.6522e-16
4256.7011    7.5314e-16
4257.7158    7.8046e-16
4258.7305    7.6959e-16
4259.7452    7.5655e-16
4260.7599    7.5630e-16
4261.7746    7.4951e-16
4262.7893    7.5826e-16
4263.8040    7.8446e-16
4264.8187    7.8814e-16
4265.8334    7.9055e-16
4266.8481    7.9048e-16
4267.8628    7.8572e-16
4268.8775    7.7504e-16
4269.8922    7.6295e-16
4270.9069    7.3513e-16
4271.9216    7.2630e-16
4272.9363    7.3388e-16
4273.9510    7.3936e-16
4274.9657    7.5750e-16
4275.9804    7.6595e-16
4276.9951    7.5037e-16
4278.0099    7.5714e-16
4279.0246    7.6277e-16
4280.0393    7.5854e-16
4281.0540    7.5590e-16
4282.0687    7.5928e-16
4283.0834    7.6420e-16
4284.0981    7.5548e-16
4285.1128    7.6319e-16
4286.1275    7.6476e-16
4287.1422    7.6211e-16
4288.1569    7.5556e-16
4289.1716    7.5281e-16
4290.1863    7.3691e-16
4291.2010    7.3809e-16
4292.2157    7.5101e-16
4293.2304    7.4234e-16
4294.2451    7.3244e-16
4295.2598    7.4418e-16
4296.2745    7.4927e-16
4297.2892    7.4848e-16
4298.3039    7.7121e-16
4299.3186    7.5782e-16
4300.3333    7.5706e-16
4301.3480    7.6194e-16
4302.3627    7.6908e-16
4303.3774    7.4047e-16
4304.3921    7.3157e-16
4305.4068    7.4089e-16
4306.4215    7.4853e-16
4307.4362    7.4311e-16
4308.4509    7.6383e-16
4309.4656    7.4663e-16
4310.4803    7.5363e-16
4311.4950    7.6069e-16
4312.5097    7.1241e-16
4313.5245    7.1813e-16
4314.5392    7.4882e-16
4315.5539    7.5350e-16
4316.5686    7.5946e-16
4317.5833    7.3363e-16
4318.5980    7.3168e-16
4319.6127    7.4803e-16
4320.6274    7.6726e-16
4321.6421    7.5699e-16
4322.6568    7.3403e-16
4323.6715    7.3469e-16
4324.6862    7.3559e-16
4325.7009    7.5775e-16
4326.7156    7.5746e-16
4327.7303    7.5091e-16
4328.7450    7.4885e-16
4329.7597    7.5414e-16
4330.7744    7.4541e-16
4331.7891    7.3447e-16
4332.8038    7.3080e-16
4333.8185    7.3196e-16
4334.8332    7.5811e-16
4335.8479    7.4279e-16
4336.8626    7.3930e-16
4337.8773    7.4250e-16
4338.8920    7.2748e-16
4339.9067    7.2589e-16
4340.9214    7.2470e-16
4341.9361    7.3022e-16
4342.9508    7.5672e-16
4343.9655    7.4279e-16
4344.9802    7.3622e-16
4345.9949    7.3041e-16
4347.0096    7.2843e-16
4348.0244    7.1653e-16
4349.0391    7.2348e-16
4350.0538    7.3603e-16
4351.0685    7.3654e-16
4352.0832    7.2048e-16
4353.0979    7.3380e-16
4354.1126    7.2798e-16
4355.1273    7.1843e-16
4356.1420    7.0375e-16
4357.1567    7.0548e-16
4358.1714    7.1327e-16
4359.1861    7.1664e-16
4360.2008    7.3683e-16
4361.2155    7.4373e-16
4362.2302    7.4649e-16
4363.2449    7.2500e-16
4364.2596    7.1864e-16
4365.2743    7.0645e-16
4366.2890    7.3456e-16
4367.3037    7.4363e-16
4368.3184    7.3116e-16
4369.3331    7.1919e-16
4370.3478    7.3771e-16
4371.3625    7.3350e-16
4372.3772    7.2280e-16
4373.3919    7.3603e-16
4374.4066    7.3912e-16
4375.4213    7.3356e-16
4376.4360    7.2422e-16
4377.4507    7.2907e-16
4378.4654    7.2957e-16
4379.4801    7.3316e-16
4380.4948    7.2824e-16
4381.5095    7.1494e-16
4382.5242    7.2331e-16
4383.5390    7.2790e-16
4384.5537    7.3255e-16
4385.5684    7.2276e-16
4386.5831    7.2822e-16
4387.5978    7.4317e-16
4388.6125    7.3552e-16
4389.6272    7.0019e-16
4390.6419    6.9410e-16
4391.6566    6.9607e-16
4392.6713    7.1798e-16
4393.6860    7.2409e-16
4394.7007    7.3020e-16
4395.7154    7.1388e-16
4396.7301    7.0101e-16
4397.7448    6.9846e-16
4398.7595    7.0337e-16
4399.7742    7.2670e-16
4400.7889    7.0117e-16
4401.8036    7.1242e-16
4402.8183    7.1083e-16
4403.8330    7.0604e-16
4404.8477    7.3271e-16
4405.8624    7.2507e-16
4406.8771    7.2374e-16
4407.8918    7.1460e-16
4408.9065    7.1875e-16
4409.9212    7.1926e-16
4410.9359    7.0565e-16
4411.9506    7.2216e-16
4412.9653    7.1117e-16
4413.9800    7.1843e-16
4414.9947    7.1462e-16
4416.0094    7.1307e-16
4417.0241    7.1464e-16
4418.0389    7.1288e-16
4419.0536    7.0394e-16
4420.0683    7.1603e-16
4421.0830    7.3416e-16
4422.0977    7.2126e-16
4423.1124    7.2347e-16
4424.1271    7.3494e-16
4425.1418    7.4884e-16
4426.1565    7.7524e-16
4427.1712    7.5945e-16
4428.1859    7.6495e-16
4429.2006    7.8077e-16
4430.2153    7.9339e-16
4431.2300    8.0798e-16
4432.2447    8.0488e-16
4433.2594    7.6234e-16
4434.2741    7.2047e-16
4435.2888    7.0285e-16
4436.3035    6.7875e-16
4437.3182    6.7742e-16
4438.3329    7.0218e-16
4439.3476    7.0076e-16
4440.3623    7.0647e-16
4441.3770    7.1092e-16
4442.3917    7.0817e-16
4443.4064    6.9852e-16
4444.4211    6.8837e-16
4445.4358    6.8841e-16
4446.4505    6.9789e-16
4447.4652    6.8956e-16
4448.4799    6.9023e-16
4449.4946    6.8778e-16
4450.5093    6.9022e-16
4451.5240    6.7898e-16
4452.5387    7.0023e-16
4453.5535    6.9356e-16
4454.5682    7.0037e-16
4455.5829    7.0302e-16
4456.5976    7.1126e-16
4457.6123    6.9711e-16
4458.6270    7.0250e-16
4459.6417    7.0426e-16
4460.6564    6.9973e-16
4461.6711    6.9311e-16
4462.6858    6.8006e-16
4463.7005    7.0905e-16
4464.7152    6.9989e-16
4465.7299    6.8934e-16
4466.7446    6.9553e-16
4467.7593    7.0395e-16
4468.7740    7.0024e-16
4469.7887    6.8218e-16
4470.8034    6.9312e-16
4471.8181    6.8071e-16
4472.8328    6.9423e-16
4473.8475    6.8023e-16
4474.8622    6.7039e-16
4475.8769    6.7168e-16
4476.8916    6.9146e-16
4477.9063    6.9794e-16
4478.9210    6.7829e-16
4479.9357    6.8002e-16
4480.9504    6.8642e-16
4481.9651    6.7518e-16
4482.9798    6.7728e-16
4483.9945    6.6993e-16
4485.0092    6.8107e-16
4486.0239    6.9720e-16
4487.0386    6.8905e-16
4488.0534    6.7393e-16
4489.0681    6.8893e-16
4490.0828    6.7343e-16
4491.0975    6.6765e-16
4492.1122    6.7339e-16
4493.1269    6.6718e-16
4494.1416    6.6153e-16
4495.1563    6.5904e-16
4496.1710    6.7060e-16
4497.1857    6.7917e-16
4498.2004    6.5343e-16
4499.2151    6.4396e-16
4500.2298    6.5834e-16
4501.2445    6.7908e-16
4502.2592    6.6307e-16
4503.2739    6.5470e-16
4504.2886    6.6844e-16
4505.3033    6.6960e-16
4506.3180    6.7639e-16
4507.3327    6.6667e-16
4508.3474    6.6295e-16
4509.3621    6.7070e-16
4510.3768    6.8573e-16
4511.3915    6.6864e-16
4512.4062    6.6239e-16
4513.4209    6.5970e-16
4514.4356    6.5721e-16
4515.4503    6.6885e-16
4516.4650    6.7253e-16
4517.4797    6.7300e-16
4518.4944    6.6336e-16
4519.5091    6.4186e-16
4520.5238    6.5731e-16
4521.5385    6.6513e-16
4522.5532    6.5970e-16
4523.5680    6.5097e-16
4524.5827    6.5709e-16
4525.5974    6.7146e-16
4526.6121    6.8111e-16
4527.6268    6.7210e-16
4528.6415    6.6787e-16
4529.6562    6.6337e-16
4530.6709    6.5806e-16
4531.6856    6.7072e-16
4532.7003    6.6854e-16
4533.7150    6.5830e-16
4534.7297    6.6095e-16
4535.7444    6.5406e-16
4536.7591    6.5415e-16
4537.7738    6.6084e-16
4538.7885    6.7016e-16
4539.8032    6.5884e-16
4540.8179    6.5396e-16
4541.8326    6.5330e-16
4542.8473    6.5243e-16
4543.8620    6.5588e-16
4544.8767    6.5053e-16
4545.8914    6.4724e-16
4546.9061    6.4951e-16
4547.9208    6.6270e-16
4548.9355    6.7724e-16
4549.9502    6.6769e-16
4550.9649    6.6366e-16
4551.9796    6.5754e-16
4552.9943    6.6008e-16
4554.0090    6.7352e-16
4555.0237    6.5373e-16
4556.0384    6.4871e-16
4557.0531    6.6005e-16
4558.0679    6.4918e-16
4559.0826    6.5172e-16
4560.0973    6.5014e-16
4561.1120    6.5731e-16
4562.1267    6.4606e-16
4563.1414    6.4033e-16
4564.1561    6.5379e-16
4565.1708    6.6408e-16
4566.1855    6.5888e-16
4567.2002    6.5126e-16
4568.2149    6.5405e-16
4569.2296    6.6161e-16
4570.2443    6.7131e-16
4571.2590    6.3438e-16
4572.2737    6.5881e-16
4573.2884    6.7362e-16
4574.3031    6.6155e-16
4575.3178    6.7100e-16
4576.3325    6.5359e-16
4577.3472    6.5708e-16
4578.3619    6.7117e-16
4579.3766    6.6942e-16
4580.3913    6.6813e-16
4581.4060    6.5272e-16
4582.4207    6.5139e-16
4583.4354    6.4010e-16
4584.4501    6.1985e-16
4585.4648    6.4789e-16
4586.4795    6.6815e-16
4587.4942    6.8278e-16
4588.5089    6.5673e-16
4589.5236    6.4796e-16
4590.5383    6.5254e-16
4591.5530    6.4537e-16
4592.5677    6.4270e-16
4593.5825    6.2656e-16
4594.5972    6.2895e-16
4595.6119    6.3461e-16
4596.6266    6.3979e-16
4597.6413    6.6101e-16
4598.6560    6.5980e-16
4599.6707    6.5445e-16
4600.6854    6.6304e-16
4601.7001    6.5441e-16
4602.7148    6.4736e-16
4603.7295    6.4715e-16
4604.7442    6.4078e-16
4605.7589    6.3511e-16
4606.7736    6.2850e-16
4607.7883    6.3321e-16
4608.8030    6.4455e-16
4609.8177    6.5650e-16
4610.8324    6.5861e-16
4611.8471    6.6330e-16
4612.8618    6.5154e-16
4613.8765    6.3809e-16
4614.8912    6.4136e-16
4615.9059    6.3906e-16
4616.9206    6.4542e-16
4617.9353    6.4536e-16
4618.9500    6.3411e-16
4619.9647    6.2815e-16
4620.9794    6.3828e-16
4621.9941    6.4447e-16
4623.0088    6.4639e-16
4624.0235    6.3636e-16
4625.0382    6.4655e-16
4626.0529    6.6620e-16
4627.0676    6.6159e-16
4628.0824    6.4921e-16
4629.0971    6.2858e-16
4630.1118    6.2648e-16
4631.1265    6.3539e-16
4632.1412    6.4183e-16
4633.1559    6.4317e-16
4634.1706    6.4709e-16
4635.1853    6.5368e-16
4636.2000    6.4244e-16
4637.2147    6.4428e-16
4638.2294    6.6542e-16
4639.2441    6.6100e-16
4640.2588    6.4323e-16
4641.2735    6.4388e-16
4642.2882    6.4341e-16
4643.3029    6.4797e-16
4644.3176    6.3732e-16
4645.3323    6.3711e-16
4646.3470    6.4078e-16
4647.3617    6.4531e-16
4648.3764    6.4658e-16
4649.3911    6.4831e-16
4650.4058    6.3289e-16
4651.4205    6.2843e-16
4652.4352    6.3926e-16
4653.4499    6.3956e-16
4654.4646    6.2776e-16
4655.4793    6.2856e-16
4656.4940    6.5400e-16
4657.5087    6.6927e-16
4658.5234    6.5045e-16
4659.5381    6.2849e-16
4660.5528    6.2977e-16
4661.5675    6.2606e-16
4662.5822    6.2039e-16
4663.5970    6.1947e-16
4664.6117    6.3312e-16
4665.6264    6.3178e-16
4666.6411    6.2884e-16
4667.6558    6.2262e-16
4668.6705    6.4017e-16
4669.6852    6.4070e-16
4670.6999    6.2154e-16
4671.7146    6.3319e-16
4672.7293    6.5799e-16
4673.7440    6.4486e-16
4674.7587    6.4759e-16
4675.7734    6.4579e-16
4676.7881    6.5281e-16
4677.8028    6.3163e-16
4678.8175    6.0617e-16
4679.8322    6.2524e-16
4680.8469    6.5282e-16
4681.8616    6.4814e-16
4682.8763    6.3566e-16
4683.8910    6.3360e-16
4684.9057    6.3577e-16
4685.9204    6.2866e-16
4686.9351    6.4986e-16
4687.9498    6.4696e-16
4688.9645    6.5417e-16
4689.9792    6.5366e-16
4690.9939    6.6698e-16
4692.0086    6.7125e-16
4693.0233    6.8936e-16
4694.0380    6.8987e-16
4695.0527    6.7487e-16
4696.0674    6.4818e-16
4697.0821    6.6600e-16
4698.0969    7.0659e-16
4699.1116    6.1976e-16
4700.1263    6.2597e-16
4701.1410    6.4042e-16
4702.1557    6.4240e-16
4703.1704    6.0326e-16
4704.1851    6.1961e-16
4705.1998    6.3624e-16
4706.2145    6.5001e-16
4707.2292    6.2437e-16
4708.2439    6.2787e-16
4709.2586    6.1848e-16
4710.2733    6.4070e-16
4711.2880    6.5319e-16
4712.3027    6.5595e-16
4713.3174    6.2523e-16
4714.3321    6.5282e-16
4715.3468    6.8621e-16
4716.3615    6.1816e-16
4717.3762    6.3122e-16
4718.3909    6.1513e-16
4719.4056    6.3042e-16
4720.4203    6.2287e-16
4721.4350    6.3492e-16
4722.4497    6.4301e-16
4723.4644    6.4210e-16
4724.4791    6.2150e-16
4725.4938    6.2099e-16
4726.5085    6.4117e-16
4727.5232    6.2302e-16
4728.5379    6.1086e-16
4729.5526    6.2089e-16
4730.5673    6.5900e-16
4731.5820    6.1098e-16
4732.5967    6.0385e-16
4733.6115    6.3560e-16
4734.6262    6.4422e-16
4735.6409    6.2331e-16
4736.6556    6.0494e-16
4737.6703    6.1867e-16
4738.6850    6.0521e-16
4739.6997    6.0383e-16
4740.7144    6.0313e-16
4741.7291    6.2443e-16
4742.7438    6.3235e-16
4743.7585    6.1542e-16
4744.7732    6.0895e-16
4745.7879    6.1326e-16
4746.8026    6.4627e-16
4747.8173    6.3754e-16
4748.8320    6.2884e-16
4749.8467    6.2305e-16
4750.8614    6.5144e-16
4751.8761    6.6160e-16
4752.8908    6.5596e-16
4753.9055    6.3673e-16
4754.9202    6.2310e-16
4755.9349    6.3293e-16
4756.9496    6.4383e-16
4757.9643    6.3881e-16
4758.9790    6.2141e-16
4759.9937    6.3430e-16
4761.0084    6.4800e-16
4762.0231    6.4932e-16
4763.0378    6.5790e-16
4764.0525    6.3221e-16
4765.0672    6.3927e-16
4766.0819    6.5270e-16
4767.0966    6.5698e-16
4768.1114    6.7597e-16
4769.1261    6.7406e-16
4770.1408    6.8014e-16
4771.1555    6.8222e-16
4772.1702    6.7979e-16
4773.1849    6.8561e-16
4774.1996    7.0410e-16
4775.2143    7.0843e-16
4776.2290    7.1578e-16
4777.2437    7.2449e-16
4778.2584    7.3187e-16
4779.2731    7.2944e-16
4780.2878    7.3080e-16
4781.3025    7.4394e-16
4782.3172    7.6216e-16
4783.3319    7.3917e-16
4784.3466    7.1470e-16
4785.3613    7.0521e-16
4786.3760    6.8212e-16
4787.3907    6.6723e-16
4788.4054    6.5598e-16
4789.4201    6.3418e-16
4790.4348    6.2784e-16
4791.4495    6.4560e-16
4792.4642    6.4072e-16
4793.4789    6.4373e-16
4794.4936    6.6341e-16
4795.5083    6.3977e-16
4796.5230    6.0293e-16
4797.5377    6.0275e-16
4798.5524    6.1821e-16
4799.5671    6.3428e-16
4800.5818    6.1261e-16
4801.5965    6.1366e-16
4802.6112    5.9629e-16
4803.6260    6.0405e-16
4804.6407    5.9951e-16
4805.6554    5.8073e-16
4806.6701    6.0050e-16
4807.6848    5.9705e-16
4808.6995    6.1278e-16
4809.7142    5.8736e-16
4810.7289    5.9785e-16
4811.7436    6.0353e-16
4812.7583    6.2186e-16
4813.7730    6.0849e-16
4814.7877    5.7799e-16
4815.8024    6.0392e-16
4816.8171    5.7752e-16
4817.8318    5.9824e-16
4818.8465    5.9194e-16
4819.8612    6.1033e-16
4820.8759    6.0722e-16
4821.8906    5.9861e-16
4822.9053    6.0473e-16
4823.9200    5.9745e-16
4824.9347    5.8443e-16
4825.9494    5.9284e-16
4826.9641    5.8028e-16
4827.9788    6.0242e-16
4828.9935    5.8099e-16
4830.0082    5.6903e-16
4831.0229    5.9793e-16
4832.0376    5.8425e-16
4833.0523    5.6731e-16
4834.0670    5.9875e-16
4835.0817    5.8773e-16
4836.0964    5.5809e-16
4837.1111    5.7846e-16
4838.1259    5.8457e-16
4839.1406    5.6258e-16
4840.1553    5.9169e-16
4841.1700    5.8047e-16
4842.1847    5.8721e-16
4843.1994    5.9109e-16
4844.2141    5.7606e-16
4845.2288    5.6615e-16
4846.2435    5.7882e-16
4847.2582    5.8756e-16
4848.2729    5.6626e-16
4849.2876    5.5944e-16
4850.3023    5.9238e-16
4851.3170    5.6794e-16
4852.3317    5.6724e-16
4853.3464    5.5884e-16
4854.3611    5.9123e-16
4855.3758    5.9585e-16
4856.3905    6.0847e-16
4857.4052    5.7652e-16
4858.4199    5.5869e-16
4859.4346    5.6550e-16
4860.4493    5.8184e-16
4861.4640    5.6476e-16
4862.4787    5.7897e-16
4863.4934    5.7233e-16
4864.5081    5.5088e-16
4865.5228    5.8014e-16
4866.5375    5.6632e-16
4867.5522    5.8693e-16
4868.5669    5.5553e-16
4869.5816    5.7805e-16
4870.5963    5.5953e-16
4871.6110    5.6082e-16
4872.6257    5.7046e-16
4873.6405    5.5664e-16
4874.6552    5.4175e-16
4875.6699    5.6135e-16
4876.6846    5.7280e-16
4877.6993    5.3989e-16
4878.7140    5.4165e-16
4879.7287    5.4474e-16
4880.7434    5.4144e-16
4881.7581    5.3378e-16
4882.7728    5.4715e-16
4883.7875    5.4326e-16
4884.8022    5.5551e-16
4885.8169    5.4916e-16
4886.8316    5.4465e-16
4887.8463    5.3026e-16
4888.8610    5.5149e-16
4889.8757    5.4754e-16
4890.8904    5.6330e-16
4891.9051    5.5491e-16
4892.9198    5.5738e-16
4893.9345    5.3148e-16
4894.9492    5.5165e-16
4895.9639    5.5813e-16
4896.9786    5.4962e-16
4897.9933    5.2442e-16
4899.0080    5.4573e-16
4900.0227    5.5151e-16
4901.0374    5.4998e-16
4902.0521    5.4389e-16
4903.0668    5.4670e-16
4904.0815    5.4651e-16
4905.0962    5.3263e-16
4906.1109    5.2386e-16
4907.1256    5.3591e-16
4908.1404    5.5049e-16
4909.1551    5.4811e-16
4910.1698    5.3994e-16
4911.1845    5.3783e-16
4912.1992    5.4687e-16
4913.2139    5.2785e-16
4914.2286    5.3900e-16
4915.2433    5.3186e-16
4916.2580    5.2997e-16
4917.2727    5.1464e-16
4918.2874    5.2868e-16
4919.3021    5.4024e-16
4920.3168    5.4544e-16
4921.3315    5.4100e-16
4922.3462    5.4060e-16
4923.3609    5.2444e-16
4924.3756    5.2755e-16
4925.3903    5.2024e-16
4926.4050    5.3155e-16
4927.4197    5.4888e-16
4928.4344    5.4000e-16
4929.4491    5.3232e-16
4930.4638    5.2976e-16
4931.4785    5.2505e-16
4932.4932    5.4746e-16
4933.5079    5.3144e-16
4934.5226    5.3346e-16
4935.5373    5.1951e-16
4936.5520    5.2145e-16
4937.5667    5.2837e-16
4938.5814    5.3605e-16
4939.5961    5.4049e-16
4940.6108    5.4453e-16
4941.6255    5.3795e-16
4942.6402    5.3109e-16
4943.6550    5.3305e-16
4944.6697    5.4218e-16
4945.6844    5.4001e-16
4946.6991    5.5388e-16
4947.7138    5.3818e-16
4948.7285    5.3225e-16
4949.7432    5.5481e-16
4950.7579    5.6221e-16
4951.7726    5.4678e-16
4952.7873    5.3852e-16
4953.8020    5.4987e-16
4954.8167    5.4740e-16
4955.8314    5.4500e-16
4956.8461    5.5309e-16
4957.8608    5.6042e-16
4958.8755    5.7365e-16
4959.8902    6.4685e-16
4960.9049    7.1716e-16
4961.9196    7.4653e-16
4962.9343    7.5758e-16
4963.9490    7.2723e-16
4964.9637    6.3224e-16
4965.9784    5.5481e-16
4966.9931    5.4268e-16
4968.0078    5.4757e-16
4969.0225    5.3970e-16
4970.0372    5.2625e-16
4971.0519    5.2922e-16
4972.0666    5.3136e-16
4973.0813    5.3343e-16
4974.0960    5.3101e-16
4975.1107    5.1676e-16
4976.1254    5.1817e-16
4977.1401    5.1179e-16
4978.1549    5.2129e-16
4979.1696    5.1981e-16
4980.1843    5.1758e-16
4981.1990    5.1945e-16
4982.2137    5.1358e-16
4983.2284    5.0769e-16
4984.2431    5.1482e-16
4985.2578    5.2007e-16
4986.2725    5.1961e-16
4987.2872    5.2146e-16
4988.3019    5.1981e-16
4989.3166    5.1441e-16
4990.3313    5.0335e-16
4991.3460    4.9554e-16
4992.3607    4.9804e-16
4993.3754    4.9644e-16
4994.3901    5.0247e-16
4995.4048    5.0011e-16
4996.4195    4.8637e-16
4997.4342    4.8887e-16
4998.4489    4.9528e-16
4999.4636    5.0181e-16
5000.4783    5.0445e-16
5001.4930    4.9708e-16
5002.5077    4.9800e-16
5003.5224    5.0492e-16
5004.5371    5.0292e-16
5005.5518    4.9679e-16
5006.5665    5.0332e-16
5007.5812    4.9703e-16
5008.5959    4.9090e-16
5009.6106    4.9771e-16
5010.6253    5.0320e-16
5011.6400    4.9242e-16
5012.6547    4.8803e-16
5013.6695    4.8681e-16
5014.6842    4.8591e-16
5015.6989    4.8555e-16
5016.7136    4.8322e-16
5017.7283    4.7538e-16
5018.7430    4.8588e-16
5019.7577    4.9679e-16
5020.7724    4.9406e-16
5021.7871    4.8459e-16
5022.8018    4.8778e-16
5023.8165    5.0153e-16
5024.8312    5.0057e-16
5025.8459    4.8528e-16
5026.8606    4.7464e-16
5027.8753    4.8051e-16
5028.8900    4.8208e-16
5029.9047    4.8219e-16
5030.9194    4.8934e-16
5031.9341    4.8231e-16
5032.9488    4.7712e-16
5033.9635    4.8037e-16
5034.9782    4.7900e-16
5035.9929    4.8546e-16
5037.0076    4.9591e-16
5038.0223    4.9738e-16
5039.0370    4.9125e-16
5040.0517    4.9225e-16
5041.0664    4.9357e-16
5042.0811    4.8514e-16
5043.0958    4.8164e-16
5044.1105    4.7688e-16
5045.1252    4.6875e-16
5046.1399    4.6760e-16
5047.1546    4.7951e-16
5048.1694    4.8665e-16
5049.1841    4.7819e-16
5050.1988    4.8130e-16
5051.2135    4.7222e-16
5052.2282    4.6913e-16
5053.2429    4.7304e-16
5054.2576    4.8461e-16
5055.2723    4.9745e-16
5056.2870    4.8278e-16
5057.3017    4.7295e-16
5058.3164    4.9276e-16
5059.3311    5.4099e-16
5060.3458    5.9764e-16
5061.3605    6.4012e-16
5062.3752    6.7392e-16
5063.3899    6.7185e-16
5064.4046    5.8384e-16
5065.4193    4.8964e-16
5066.4340    4.6626e-16
5067.4487    4.5887e-16
5068.4634    4.6424e-16
5069.4781    4.7592e-16
5070.4928    4.7919e-16
5071.5075    4.7364e-16
5072.5222    4.5378e-16
5073.5369    4.5670e-16
5074.5516    4.6575e-16
5075.5663    4.6771e-16
5076.5810    4.7001e-16
5077.5957    4.7985e-16
5078.6104    4.8638e-16
5079.6251    4.7230e-16
5080.6398    4.5513e-16
5081.6545    4.5599e-16
5082.6692    4.5857e-16
5083.6840    4.5314e-16
5084.6987    4.5439e-16
5085.7134    4.6072e-16
5086.7281    4.6628e-16
5087.7428    4.6122e-16
5088.7575    4.4996e-16
5089.7722    4.4946e-16
5090.7869    4.5573e-16
5091.8016    4.5363e-16
5092.8163    4.5880e-16
5093.8310    4.6662e-16
5094.8457    4.5900e-16
5095.8604    4.6708e-16
5096.8751    4.7316e-16
5097.8898    4.8030e-16
5098.9045    4.6037e-16
5099.9192    4.5303e-16
5100.9339    4.4861e-16
5101.9486    4.5072e-16
5102.9633    4.5202e-16
5103.9780    4.4894e-16
5104.9927    4.5494e-16
5106.0074    4.7042e-16
5107.0221    4.9744e-16
5108.0368    6.2654e-16
5109.0515    8.0796e-16
5110.0662    9.2542e-16
5111.0809    1.0187e-15
5112.0956    1.0568e-15
5113.1103    8.8132e-16
5114.1250    5.8530e-16
5115.1397    4.6689e-16
5116.1544    4.6077e-16
5117.1691    4.5212e-16
5118.1839    4.4462e-16
5119.1986    4.5177e-16
5120.2133    4.5446e-16
5121.2280    4.5147e-16
5122.2427    4.5560e-16
5123.2574    4.5431e-16
5124.2721    4.4823e-16
5125.2868    4.5036e-16
5126.3015    4.4959e-16
5127.3162    4.5922e-16
5128.3309    4.6388e-16
5129.3456    4.5369e-16
5130.3603    4.4717e-16
5131.3750    4.4682e-16
5132.3897    4.4326e-16
5133.4044    4.4687e-16
5134.4191    4.5029e-16
5135.4338    4.5146e-16
5136.4485    4.4475e-16
5137.4632    4.4318e-16
5138.4779    4.4203e-16
5139.4926    4.3359e-16
5140.5073    4.2983e-16
5141.5220    4.3298e-16
5142.5367    4.3428e-16
5143.5514    4.2746e-16
5144.5661    4.2814e-16
5145.5808    4.2886e-16
5146.5955    4.3787e-16
5147.6102    4.4678e-16
5148.6249    4.4677e-16
5149.6396    4.4657e-16
5150.6543    4.4372e-16
5151.6690    4.5000e-16
5152.6838    4.5157e-16
5153.6985    4.5291e-16
5154.7132    4.4581e-16
5155.7279    4.4580e-16
5156.7426    4.4841e-16
5157.7573    4.4936e-16
5158.7720    4.4545e-16
5159.7867    4.4162e-16
5160.8014    4.4992e-16
5161.8161    4.5023e-16
5162.8308    4.4556e-16
5163.8455    4.4043e-16
5164.8602    4.4625e-16
5165.8749    4.3443e-16
5166.8896    4.3651e-16
5167.9043    4.4538e-16
5168.9190    4.4816e-16
5169.9337    4.4345e-16
5170.9484    4.3809e-16
5171.9631    4.3424e-16
5172.9778    4.4401e-16
5173.9925    4.4641e-16
5175.0072    4.2332e-16
5176.0219    4.3265e-16
5177.0366    4.3614e-16
5178.0513    4.3720e-16
5179.0660    4.4002e-16
5180.0807    4.3859e-16
5181.0954    4.3917e-16
5182.1101    4.4461e-16
5183.1248    4.5046e-16
5184.1395    4.3451e-16
5185.1542    4.3261e-16
5186.1689    4.3840e-16
5187.1836    4.3429e-16
5188.1984    4.4107e-16
5189.2131    4.3466e-16
5190.2278    4.3086e-16
5191.2425    4.3283e-16
5192.2572    4.3269e-16
5193.2719    4.3043e-16
5194.2866    4.3361e-16
5195.3013    4.4215e-16
5196.3160    4.3838e-16
5197.3307    4.2934e-16
5198.3454    4.2638e-16
5199.3601    4.3417e-16
5200.3748    4.2461e-16
5201.3895    4.2962e-16
5202.4042    4.3921e-16
5203.4189    4.2631e-16
5204.4336    4.2908e-16
5205.4483    4.2824e-16
5206.4630    4.2870e-16
5207.4777    4.2482e-16
5208.4924    4.2605e-16
5209.5071    4.3304e-16
5210.5218    4.2898e-16
5211.5365    4.3012e-16
5212.5512    4.2866e-16
5213.5659    4.3396e-16
5214.5806    4.2193e-16
5215.5953    4.1041e-16
5216.6100    4.1952e-16
5217.6247    4.3157e-16
5218.6394    4.2692e-16
5219.6541    4.2336e-16
5220.6688    4.2265e-16
5221.6835    4.3499e-16
5222.6983    4.4070e-16
5223.7130    4.2546e-16
5224.7277    4.2042e-16
5225.7424    4.2357e-16
5226.7571    4.3024e-16
5227.7718    4.3737e-16
5228.7865    4.2358e-16
5229.8012    4.1682e-16
5230.8159    4.2313e-16
5231.8306    4.2027e-16
5232.8453    4.3082e-16
5233.8600    4.2572e-16
5234.8747    4.2080e-16
5235.8894    4.1953e-16
5236.9041    4.2652e-16
5237.9188    4.2864e-16
5238.9335    4.2409e-16
5239.9482    4.1372e-16
5240.9629    4.1681e-16
5241.9776    4.1737e-16
5242.9923    4.2123e-16
5244.0070    4.1001e-16
5245.0217    4.0079e-16
5246.0364    4.1191e-16
5247.0511    4.1734e-16
5248.0658    4.1932e-16
5249.0805    4.1790e-16
5250.0952    4.1155e-16
5251.1099    4.1725e-16
5252.1246    4.1451e-16
5253.1393    4.1184e-16
5254.1540    4.0753e-16
5255.1687    4.1097e-16
5256.1834    4.1571e-16
5257.1981    4.1992e-16
5258.2129    4.0953e-16
5259.2276    4.1977e-16
5260.2423    4.1732e-16
5261.2570    4.1612e-16
5262.2717    4.1258e-16
5263.2864    4.1877e-16
5264.3011    4.2220e-16
5265.3158    4.2079e-16
5266.3305    4.2951e-16
5267.3452    4.2760e-16
5268.3599    4.1344e-16
5269.3746    4.1783e-16
5270.3893    4.1226e-16
5271.4040    4.0590e-16
5272.4187    4.1002e-16
5273.4334    4.1587e-16
5274.4481    4.0390e-16
5275.4628    4.1834e-16
5276.4775    4.2105e-16
5277.4922    4.1337e-16
5278.5069    4.1790e-16
5279.5216    4.2193e-16
5280.5363    4.0888e-16
5281.5510    4.0916e-16
5282.5657    4.1313e-16
5283.5804    4.1673e-16
5284.5951    4.1233e-16
5285.6098    4.0563e-16
5286.6245    4.1189e-16
5287.6392    4.0547e-16
5288.6539    4.1211e-16
5289.6686    4.1596e-16
5290.6833    4.1520e-16
5291.6980    4.0637e-16
5292.7128    4.0176e-16
5293.7275    4.1138e-16
5294.7422    4.1546e-16
5295.7569    4.1360e-16
5296.7716    4.2347e-16
5297.7863    4.2812e-16
5298.8010    4.0996e-16
5299.8157    4.0914e-16
5300.8304    4.0603e-16
5301.8451    4.0655e-16
5302.8598    4.1556e-16
5303.8745    4.1760e-16
5304.8892    4.1236e-16
5305.9039    4.1751e-16
5306.9186    4.1552e-16
5307.9333    4.1944e-16
5308.9480    4.1091e-16
5309.9627    4.2548e-16
5310.9774    4.1630e-16
5311.9921    4.1576e-16
5313.0068    4.1957e-16
5314.0215    4.3203e-16
5315.0362    4.1906e-16
5316.0509    4.2119e-16
5317.0656    4.2517e-16
5318.0803    4.2004e-16
5319.0950    4.2085e-16
5320.1097    4.1842e-16
5321.1244    4.1156e-16
5322.1391    4.1564e-16
5323.1538    4.1514e-16
5324.1685    4.1270e-16
5325.1832    4.2095e-16
5326.1979    4.1846e-16
5327.2126    4.1869e-16
5328.2274    4.1214e-16
5329.2421    4.0680e-16
5330.2568    4.1044e-16
5331.2715    4.0908e-16
5332.2862    4.0666e-16
5333.3009    4.2532e-16
5334.3156    4.1964e-16
5335.3303    4.0562e-16
5336.3450    4.1142e-16
5337.3597    4.1716e-16
5338.3744    4.1412e-16
5339.3891    4.1797e-16
5340.4038    4.1781e-16
5341.4185    4.1003e-16
5342.4332    4.1294e-16
5343.4479    4.1674e-16
5344.4626    4.1015e-16
5345.4773    4.0792e-16
5346.4920    4.1606e-16
5347.5067    4.1221e-16
5348.5214    4.1686e-16
5349.5361    4.1308e-16
5350.5508    4.1502e-16
5351.5655    4.1499e-16
5352.5802    4.2552e-16
5353.5949    4.1091e-16
5354.6096    4.1258e-16
5355.6243    4.1530e-16
5356.6390    4.1794e-16
5357.6537    4.0924e-16
5358.6684    4.0526e-16
5359.6831    4.1780e-16
5360.6978    4.2155e-16
5361.7125    4.1600e-16
5362.7273    4.1655e-16
5363.7420    4.1680e-16
5364.7567    3.9812e-16
5365.7714    4.0659e-16
5366.7861    4.1056e-16
5367.8008    4.0668e-16
5368.8155    4.1359e-16
5369.8302    4.1063e-16
5370.8449    4.0583e-16
5371.8596    4.0206e-16
5372.8743    4.0326e-16
5373.8890    4.1565e-16
5374.9037    4.0824e-16
5375.9184    4.0275e-16
5376.9331    4.0083e-16
5377.9478    4.0875e-16
5378.9625    4.0980e-16
5379.9772    3.9927e-16
5380.9919    4.0293e-16
5382.0066    3.9119e-16
5383.0213    3.9948e-16
5384.0360    3.9964e-16
5385.0507    3.9977e-16
5386.0654    3.9569e-16
5387.0801    3.9932e-16
5388.0948    3.9727e-16
5389.1095    4.0004e-16
5390.1242    3.9624e-16
5391.1389    4.0095e-16
5392.1536    4.0278e-16
5393.1683    3.9968e-16
5394.1830    3.9479e-16
5395.1977    3.9720e-16
5396.2124    3.9966e-16
5397.2271    3.9970e-16
5398.2419    3.9270e-16
5399.2566    3.9547e-16
5400.2713    3.9577e-16
5401.2860    3.9735e-16
5402.3007    3.9758e-16
5403.3154    3.9947e-16
5404.3301    3.9789e-16
5405.3448    3.9718e-16
5406.3595    3.9956e-16
5407.3742    3.9792e-16
5408.3889    3.9947e-16
5409.4036    3.9438e-16
5410.4183    3.9085e-16
5411.4330    3.9194e-16
5412.4477    3.9648e-16
5413.4624    3.9587e-16
5414.4771    3.9159e-16
5415.4918    3.9639e-16
5416.5065    3.9602e-16
5417.5212    3.9459e-16
5418.5359    3.9263e-16
5419.5506    3.9155e-16
5420.5653    3.8533e-16
5421.5800    3.8421e-16
5422.5947    3.8985e-16
5423.6094    3.8577e-16
5424.6241    3.8009e-16
5425.6388    3.8284e-16
5426.6535    3.8578e-16
5427.6682    3.9322e-16
5428.6829    3.8945e-16
5429.6976    3.8321e-16
5430.7123    3.8163e-16
5431.7270    3.8106e-16
5432.7418    3.7816e-16
5433.7565    3.8030e-16
5434.7712    3.8369e-16
5435.7859    3.8035e-16
5436.8006    3.8309e-16
5437.8153    3.8692e-16
5438.8300    3.7906e-16
5439.8447    3.8293e-16
5440.8594    3.9351e-16
5441.8741    3.9569e-16
5442.8888    3.9768e-16
5443.9035    3.9010e-16
5444.9182    3.8104e-16
5445.9329    3.8033e-16
5446.9476    3.8872e-16
5447.9623    3.9177e-16
5448.9770    3.8603e-16
5449.9917    3.8407e-16
5451.0064    3.8764e-16
5452.0211    3.8873e-16
5453.0358    3.8678e-16
5454.0505    3.8064e-16
5455.0652    3.7927e-16
5456.0799    3.8527e-16
5457.0946    3.8606e-16
5458.1093    3.8223e-16
5459.1240    3.8698e-16
5460.1387    3.8511e-16
5461.1534    3.8509e-16
5462.1681    3.8850e-16
5463.1828    3.8077e-16
5464.1975    3.9181e-16
5465.2122    3.9456e-16
5466.2269    3.8504e-16
5467.2416    3.8698e-16
5468.2564    3.8649e-16
5469.2711    3.9375e-16
5470.2858    3.9690e-16
5471.3005    3.8489e-16
5472.3152    3.8850e-16
5473.3299    3.8156e-16
5474.3446    3.8646e-16
5475.3593    3.8608e-16
5476.3740    3.8525e-16
5477.3887    3.9074e-16
5478.4034    3.9275e-16
5479.4181    3.8485e-16
5480.4328    3.8567e-16
5481.4475    3.8673e-16
5482.4622    3.8807e-16
5483.4769    3.8281e-16
5484.4916    3.8190e-16
5485.5063    3.8564e-16
5486.5210    3.8729e-16
5487.5357    3.8785e-16
5488.5504    3.8771e-16
5489.5651    3.8527e-16
5490.5798    3.8002e-16
5491.5945    3.7839e-16
5492.6092    3.9025e-16
5493.6239    3.9300e-16
5494.6386    3.8963e-16
5495.6533    3.8354e-16
5496.6680    3.8848e-16
5497.6827    3.8291e-16
5498.6974    3.8320e-16
5499.7121    3.9252e-16
5500.7268    3.8797e-16
5501.7415    3.9011e-16
5502.7563    3.7882e-16
5503.7710    3.8615e-16
5504.7857    3.9035e-16
5505.8004    3.8306e-16
5506.8151    3.9241e-16
5507.8298    3.8325e-16
5508.8445    3.8754e-16
5509.8592    3.8570e-16
5510.8739    3.8707e-16
5511.8886    3.7612e-16
5512.9033    3.8451e-16
5513.9180    3.8305e-16
5514.9327    3.9711e-16
5515.9474    3.9341e-16
5516.9621    3.8745e-16
5517.9768    3.8377e-16
5518.9915    3.9154e-16
5520.0062    4.0099e-16
5521.0209    3.9109e-16
5522.0356    3.8424e-16
5523.0503    3.9804e-16
5524.0650    4.0481e-16
5525.0797    3.9262e-16
5526.0944    3.8695e-16
5527.1091    3.9193e-16
5528.1238    3.8997e-16
5529.1385    3.8996e-16
5530.1532    3.9102e-16
5531.1679    3.8285e-16
5532.1826    3.7857e-16
5533.1973    3.8044e-16
5534.2120    3.8240e-16
5535.2267    3.7932e-16
5536.2414    3.7974e-16
5537.2561    3.7443e-16
5538.2709    3.7410e-16
5539.2856    3.8394e-16
5540.3003    3.7897e-16
5541.3150    3.7604e-16
5542.3297    3.7301e-16
5543.3444    3.7652e-16
5544.3591    3.7571e-16
5545.3738    3.8099e-16
5546.3885    3.8021e-16
5547.4032    3.7224e-16
5548.4179    3.6688e-16
5549.4326    3.6697e-16
5550.4473    3.5890e-16
5551.4620    3.6339e-16
5552.4767    3.6701e-16
5553.4914    3.7184e-16
5554.5061    3.8367e-16
5555.5208    3.8005e-16
5556.5355    3.7925e-16
5557.5502    3.7402e-16
5558.5649    3.7405e-16
5559.5796    3.7763e-16
5560.5943    3.7483e-16
5561.6090    3.6884e-16
5562.6237    3.6605e-16
5563.6384    3.6566e-16
5564.6531    3.6960e-16
5565.6678    3.6660e-16
5566.6825    3.6326e-16
5567.6972    3.6380e-16
5568.7119    3.7299e-16
5569.7266    3.6977e-16
5570.7413    3.6504e-16
5571.7560    3.7895e-16
5572.7708    3.7479e-16
5573.7855    3.7014e-16
5574.8002    3.7024e-16
5575.8149    3.6639e-16
5576.8296    3.7225e-16
5577.8443    3.6818e-16
5578.8590    3.6307e-16
5579.8737    3.6140e-16
5580.8884    3.6457e-16
5581.9031    3.5978e-16
5582.9178    3.6354e-16
5583.9325    3.6496e-16
5584.9472    3.5713e-16
5585.9619    3.5777e-16
5586.9766    3.6028e-16
5587.9913    3.6320e-16
5589.0060    3.6705e-16
5590.0207    3.6267e-16
5591.0354    3.6687e-16
5592.0501    3.6829e-16
5593.0648    3.6242e-16
5594.0795    3.5759e-16
5595.0942    3.5888e-16
5596.1089    3.6297e-16
5597.1236    3.7244e-16
5598.1383    3.6951e-16
5599.1530    3.6194e-16
5600.1677    3.5859e-16
5601.1824    3.6002e-16
5602.1971    3.5531e-16
5603.2118    3.5950e-16
5604.2265    3.6353e-16
5605.2412    3.5514e-16
5606.2559    3.5695e-16
5607.2706    3.5620e-16
5608.2854    3.5328e-16
5609.3001    3.5920e-16
5610.3148    3.5885e-16
5611.3295    3.5233e-16
5612.3442    3.6029e-16
5613.3589    3.5869e-16
5614.3736    3.6205e-16
5615.3883    3.6088e-16
5616.4030    3.5135e-16
5617.4177    3.5999e-16
5618.4324    3.5235e-16
5619.4471    3.5622e-16
5620.4618    3.5624e-16
5621.4765    3.4928e-16
5622.4912    3.5511e-16
5623.5059    3.4509e-16
5624.5206    3.6519e-16
5625.5353    3.5320e-16
5626.5500    3.5325e-16
5627.5647    3.5607e-16
5628.5794    3.5533e-16
5629.5941    3.6704e-16
5630.6088    3.6169e-16
5631.6235    3.5119e-16
5632.6382    3.5748e-16
5633.6529    3.4623e-16
5634.6676    3.6043e-16
5635.6823    3.5658e-16
5636.6970    3.5927e-16
5637.7117    3.5516e-16
5638.7264    3.5661e-16
5639.7411    3.3255e-16
5640.7558    3.4537e-16
5641.7705    3.6376e-16
5642.7853    3.4721e-16
5643.8000    3.5660e-16
5644.8147    3.4705e-16
5645.8294    3.4992e-16
5646.8441    3.4931e-16
5647.8588    3.4236e-16
5648.8735    3.4765e-16
5649.8882    3.6316e-16
5650.9029    3.6484e-16
5651.9176    3.4314e-16
5652.9323    3.5871e-16
5653.9470    3.5300e-16
5654.9617    3.5111e-16
5655.9764    3.5336e-16
5656.9911    3.4870e-16
5658.0058    3.6055e-16
5659.0205    3.4832e-16
5660.0352    3.5427e-16
5661.0499    3.4635e-16
5662.0646    3.5030e-16
5663.0793    3.4795e-16
5664.0940    3.4718e-16
5665.1087    3.4482e-16
5666.1234    3.6212e-16
5667.1381    3.5152e-16
5668.1528    3.5257e-16
5669.1675    3.5032e-16
5670.1822    3.4382e-16
5671.1969    3.4432e-16
5672.2116    3.4612e-16
5673.2263    3.4691e-16
5674.2410    3.5070e-16
5675.2557    3.5364e-16
5676.2704    3.4463e-16
5677.2851    3.4428e-16
5678.2999    3.5040e-16
5679.3146    3.5127e-16
5680.3293    3.5116e-16
5681.3440    3.4829e-16
5682.3587    3.5236e-16
5683.3734    3.5242e-16
5684.3881    3.4691e-16
5685.4028    3.5234e-16
5686.4175    3.5117e-16
5687.4322    3.4390e-16
5688.4469    3.4576e-16
5689.4616    3.4240e-16
5690.4763    3.4314e-16
5691.4910    3.4806e-16
5692.5057    3.4486e-16
5693.5204    3.4748e-16
5694.5351    3.5566e-16
5695.5498    3.5454e-16
5696.5645    3.5420e-16
5697.5792    3.4866e-16
5698.5939    3.4951e-16
5699.6086    3.4874e-16
5700.6233    3.5024e-16
5701.6380    3.4947e-16
5702.6527    3.4614e-16
5703.6674    3.4661e-16
5704.6821    3.4955e-16
5705.6968    3.5403e-16
5706.7115    3.5366e-16
5707.7262    3.5291e-16
5708.7409    3.4630e-16
5709.7556    3.4582e-16
5710.7703    3.4917e-16
5711.7850    3.5565e-16
5712.7998    3.5613e-16
5713.8145    3.4974e-16
5714.8292    3.4772e-16
5715.8439    3.4987e-16
5716.8586    3.5240e-16
5717.8733    3.5218e-16
5718.8880    3.5711e-16
5719.9027    3.5816e-16
5720.9174    3.5183e-16
5721.9321    3.5515e-16
5722.9468    3.5962e-16
5723.9615    3.5159e-16
5724.9762    3.4862e-16
5725.9909    3.5676e-16
5727.0056    3.5214e-16
5728.0203    3.5041e-16
5729.0350    3.5681e-16
5730.0497    3.6104e-16
5731.0644    3.4430e-16
5732.0791    3.4092e-16
5733.0938    3.4640e-16
5734.1085    3.4885e-16
5735.1232    3.5347e-16
5736.1379    3.6349e-16
5737.1526    3.5890e-16
5738.1673    3.4851e-16
5739.1820    3.4956e-16
5740.1967    3.3530e-16
5741.2114    3.4223e-16
5742.2261    3.5287e-16
5743.2408    3.6207e-16
5744.2555    3.5904e-16
5745.2702    3.6452e-16
5746.2849    3.6022e-16
5747.2996    3.5495e-16
5748.3144    3.6122e-16
5749.3291    3.5154e-16
5750.3438    3.5083e-16
5751.3585    3.5821e-16
5752.3732    3.6180e-16
5753.3879    3.6027e-16
5754.4026    3.7470e-16
5755.4173    3.6966e-16
5756.4320    3.6786e-16
5757.4467    3.7444e-16
5758.4614    3.5441e-16
5759.4761    3.6000e-16
5760.4908    3.6877e-16
5761.5055    3.6270e-16
5762.5202    3.6069e-16
5763.5349    3.6053e-16
5764.5496    3.6771e-16
5765.5643    3.6156e-16
5766.5790    3.6946e-16
5767.5937    3.7087e-16
5768.6084    3.6184e-16
5769.6231    3.6000e-16
5770.6378    3.6098e-16
5771.6525    3.5664e-16
5772.6672    3.3694e-16
5773.6819    3.3289e-16
5774.6966    3.2892e-16
5775.7113    3.2965e-16
5776.7260    3.2494e-16
5777.7407    3.2222e-16
5778.7554    3.2295e-16
5779.7701    3.2088e-16
5780.7848    3.1605e-16
5781.7995    3.2373e-16
5782.8143    3.2121e-16
5783.8290    3.1962e-16
5784.8437    3.1760e-16
5785.8584    3.2228e-16
5786.8731    3.2930e-16
5787.8878    3.2650e-16
5788.9025    3.2412e-16
5789.9172    3.2400e-16
5790.9319    3.3348e-16
5791.9466    3.2797e-16
5792.9613    3.2361e-16
5793.9760    3.2684e-16
5794.9907    3.2893e-16
5796.0054    3.3558e-16
5797.0201    3.3160e-16
5798.0348    3.2625e-16
5799.0495    3.2552e-16
5800.0642    3.2957e-16
5801.0789    3.4030e-16
5802.0936    3.3130e-16
5803.1083    3.2163e-16
5804.1230    3.1846e-16
5805.1377    3.2513e-16
5806.1524    3.3132e-16
5807.1671    3.2617e-16
5808.1818    3.1408e-16
5809.1965    3.3017e-16
5810.2112    3.2789e-16
5811.2259    3.2626e-16
5812.2406    3.2564e-16
5813.2553    3.1471e-16
5814.2700    3.1912e-16
5815.2847    3.1927e-16
5816.2994    3.2167e-16
5817.3141    3.1353e-16
5818.3289    3.1783e-16
5819.3436    3.3641e-16
5820.3583    3.3302e-16
5821.3730    3.2325e-16
5822.3877    3.2092e-16
5823.4024    3.3222e-16
5824.4171    3.1660e-16
5825.4318    3.1417e-16
5826.4465    3.2898e-16
5827.4612    3.3216e-16
5828.4759    3.3493e-16
5829.4906    3.2604e-16
5830.5053    3.2027e-16
5831.5200    3.2160e-16
5832.5347    3.2169e-16
5833.5494    3.2293e-16
5834.5641    3.2406e-16
5835.5788    3.2592e-16
5836.5935    3.2430e-16
5837.6082    3.3047e-16
5838.6229    3.3321e-16
5839.6376    3.2178e-16
5840.6523    3.3520e-16
5841.6670    3.2053e-16
5842.6817    3.2502e-16
5843.6964    3.2290e-16
5844.7111    3.2793e-16
5845.7258    3.2206e-16
5846.7405    3.1852e-16
5847.7552    3.2076e-16
5848.7699    3.2730e-16
5849.7846    3.1550e-16
5850.7993    3.2065e-16
5851.8140    3.2269e-16
5852.8288    3.1989e-16
5853.8435    3.2363e-16
5854.8582    3.2361e-16
5855.8729    3.2365e-16
5856.8876    3.1989e-16
5857.9023    3.2188e-16
5858.9170    3.2212e-16
5859.9317    3.2087e-16
5860.9464    3.2095e-16
5861.9611    3.2720e-16
5862.9758    3.2454e-16
5863.9905    3.2312e-16
5865.0052    3.1997e-16
5866.0199    3.1870e-16
5867.0346    3.2480e-16
5868.0493    3.2230e-16
5869.0640    3.1856e-16
5870.0787    3.2341e-16
5871.0934    3.1067e-16
5872.1081    3.1200e-16
5873.1228    3.1663e-16
5874.1375    3.1654e-16
5875.1522    3.1108e-16
5876.1669    3.1395e-16
5877.1816    3.1467e-16
5878.1963    3.1784e-16
5879.2110    3.1662e-16
5880.2257    3.1785e-16
5881.2404    3.1435e-16
5882.2551    3.1318e-16
5883.2698    3.1716e-16
5884.2845    3.1064e-16
5885.2992    3.0947e-16
5886.3139    3.1806e-16
5887.3286    3.1997e-16
5888.3434    3.1661e-16
5889.3581    3.1347e-16
5890.3728    3.0902e-16
5891.3875    3.0957e-16
5892.4022    3.1327e-16
5893.4169    3.0943e-16
5894.4316    3.0739e-16
5895.4463    3.1079e-16
5896.4610    3.0957e-16
5897.4757    3.1724e-16
5898.4904    3.2188e-16
5899.5051    3.1168e-16
5900.5198    3.1038e-16
5901.5345    3.1610e-16
5902.5492    3.1643e-16
5903.5639    3.1465e-16
5904.5786    3.1239e-16
5905.5933    3.1519e-16
5906.6080    3.1587e-16
5907.6227    3.1137e-16
5908.6374    3.1205e-16
5909.6521    3.0967e-16
5910.6668    3.1595e-16
5911.6815    3.1794e-16
5912.6962    3.1556e-16
5913.7109    3.1697e-16
5914.7256    3.1811e-16
5915.7403    3.2174e-16
5916.7550    3.1669e-16
5917.7697    3.2290e-16
5918.7844    3.1594e-16
5919.7991    3.1254e-16
5920.8138    3.1282e-16
5921.8285    3.1558e-16
5922.8433    3.1086e-16
5923.8580    3.0896e-16
5924.8727    3.0477e-16
5925.8874    3.1177e-16
5926.9021    3.1363e-16
5927.9168    3.1125e-16
5928.9315    3.1410e-16
5929.9462    3.1274e-16
5930.9609    3.0808e-16
5931.9756    3.0790e-16
5932.9903    3.1640e-16
5934.0050    3.0875e-16
5935.0197    3.0693e-16
5936.0344    3.0795e-16
5937.0491    3.0616e-16
5938.0638    3.0516e-16
5939.0785    3.0380e-16
5940.0932    3.0527e-16
5941.1079    3.1019e-16
5942.1226    3.0836e-16
5943.1373    3.0326e-16
5944.1520    3.0295e-16
5945.1667    3.0625e-16
5946.1814    3.0723e-16
5947.1961    3.0376e-16
5948.2108    3.1237e-16
5949.2255    3.1429e-16
5950.2402    3.0967e-16
5951.2549    3.1182e-16
5952.2696    3.0695e-16
5953.2843    3.0218e-16
5954.2990    3.0324e-16
5955.3137    3.1042e-16
5956.3284    3.1192e-16
5957.3431    3.1233e-16
5958.3579    3.0525e-16
5959.3726    2.9937e-16
5960.3873    3.0158e-16
5961.4020    3.0948e-16
5962.4167    3.0741e-16
5963.4314    2.9814e-16
5964.4461    2.9612e-16
5965.4608    3.0102e-16
5966.4755    3.0616e-16
5967.4902    3.0754e-16
5968.5049    3.0994e-16
5969.5196    3.0083e-16
5970.5343    2.9585e-16
5971.5490    3.0408e-16
5972.5637    3.0304e-16
5973.5784    2.9976e-16
5974.5931    3.0087e-16
5975.6078    3.0148e-16
5976.6225    3.0130e-16
5977.6372    2.9900e-16
5978.6519    3.0217e-16
5979.6666    2.9416e-16
5980.6813    2.9413e-16
5981.6960    2.9634e-16
5982.7107    2.9715e-16
5983.7254    2.9946e-16
5984.7401    3.0033e-16
5985.7548    2.9788e-16
5986.7695    2.9737e-16
5987.7842    2.9704e-16
5988.7989    3.0043e-16
5989.8136    3.0092e-16
5990.8283    2.9922e-16
5991.8430    2.9727e-16
5992.8578    2.9945e-16
5993.8725    3.0248e-16
5994.8872    3.0493e-16
5995.9019    3.1327e-16
5996.9166    3.1343e-16
5997.9313    3.0889e-16
5998.9460    3.1355e-16
5999.9607    3.1065e-16
6000.9754    2.9835e-16
6001.9901    2.9468e-16
6003.0048    2.9204e-16
6004.0195    2.9050e-16
6005.0342    2.9724e-16
6006.0489    2.9570e-16
6007.0636    2.9457e-16
6008.0783    2.9158e-16
6009.0930    2.9075e-16
6010.1077    2.9281e-16
6011.1224    2.8969e-16
6012.1371    2.8699e-16
6013.1518    2.9275e-16
6014.1665    2.9570e-16
6015.1812    2.9360e-16
6016.1959    2.9939e-16
6017.2106    2.9578e-16
6018.2253    2.9626e-16
6019.2400    2.9741e-16
6020.2547    2.9514e-16
6021.2694    2.9706e-16
6022.2841    2.9582e-16
6023.2988    2.9336e-16
6024.3135    3.0036e-16
6025.3282    2.9684e-16
6026.3429    2.9299e-16
6027.3576    2.9160e-16
6028.3724    2.9730e-16
6029.3871    2.9668e-16
6030.4018    2.9350e-16
6031.4165    2.8913e-16
6032.4312    2.8884e-16
6033.4459    2.8689e-16
6034.4606    2.8912e-16
6035.4753    2.9015e-16
6036.4900    2.8657e-16
6037.5047    2.8975e-16
6038.5194    2.9088e-16
6039.5341    2.8876e-16
6040.5488    2.9195e-16
6041.5635    2.9055e-16
6042.5782    2.8855e-16
6043.5929    2.8580e-16
6044.6076    2.8293e-16
6045.6223    2.9067e-16
6046.6370    2.8859e-16
6047.6517    2.8964e-16
6048.6664    2.9016e-16
6049.6811    2.9476e-16
6050.6958    2.9409e-16
6051.7105    2.8969e-16
6052.7252    2.9581e-16
6053.7399    2.9337e-16
6054.7546    2.9370e-16
6055.7693    2.8820e-16
6056.7840    2.8397e-16
6057.7987    2.8471e-16
6058.8134    2.9170e-16
6059.8281    2.9180e-16
6060.8428    2.8808e-16
6061.8575    2.8236e-16
6062.8723    2.7573e-16
6063.8870    2.8531e-16
6064.9017    2.8470e-16
6065.9164    2.8276e-16
6066.9311    2.7672e-16
6067.9458    2.8620e-16
6068.9605    2.8795e-16
6069.9752    2.9013e-16
6070.9899    2.8438e-16
6072.0046    2.8515e-16
6073.0193    2.8188e-16
6074.0340    2.8042e-16
6075.0487    2.8778e-16
6076.0634    2.8226e-16
6077.0781    2.8511e-16
6078.0928    2.8969e-16
6079.1075    2.8530e-16
6080.1222    2.8612e-16
6081.1369    2.8700e-16
6082.1516    2.8709e-16
6083.1663    2.8580e-16
6084.1810    2.8292e-16
6085.1957    2.7939e-16
6086.2104    2.8035e-16
6087.2251    2.7999e-16
6088.2398    2.8058e-16
6089.2545    2.8068e-16
6090.2692    2.8080e-16
6091.2839    2.8521e-16
6092.2986    2.8733e-16
6093.3133    2.8653e-16
6094.3280    2.8586e-16
6095.3427    2.8685e-16
6096.3574    2.8759e-16
6097.3721    2.8376e-16
6098.3869    2.8472e-16
6099.4016    2.8503e-16
6100.4163    2.8318e-16
6101.4310    2.7823e-16
6102.4457    2.8038e-16
6103.4604    2.8033e-16
6104.4751    2.7725e-16
6105.4898    2.7681e-16
6106.5045    2.7976e-16
6107.5192    2.7955e-16
6108.5339    2.7565e-16
6109.5486    2.7710e-16
6110.5633    2.7641e-16
6111.5780    2.8324e-16
6112.5927    2.8603e-16
6113.6074    2.8227e-16
6114.6221    2.8338e-16
6115.6368    2.7738e-16
6116.6515    2.7887e-16
6117.6662    2.8410e-16
6118.6809    2.7944e-16
6119.6956    2.8021e-16
6120.7103    2.7537e-16
6121.7250    2.7583e-16
6122.7397    2.7634e-16
6123.7544    2.7941e-16
6124.7691    2.8089e-16
6125.7838    2.7756e-16
6126.7985    2.8506e-16
6127.8132    2.8015e-16
6128.8279    2.8162e-16
6129.8426    2.7646e-16
6130.8573    2.7583e-16
6131.8720    2.8173e-16
6132.8868    2.7793e-16
6133.9015    2.7674e-16
6134.9162    2.7400e-16
6135.9309    2.7284e-16
6136.9456    2.7479e-16
6137.9603    2.7817e-16
6138.9750    2.8154e-16
6139.9897    2.7928e-16
6141.0044    2.7675e-16
6142.0191    2.7452e-16
6143.0338    2.7341e-16
6144.0485    2.7394e-16
6145.0632    2.7573e-16
6146.0779    2.7518e-16
6147.0926    2.7722e-16
6148.1073    2.8048e-16
6149.1220    2.7726e-16
6150.1367    2.7449e-16
6151.1514    2.7600e-16
6152.1661    2.7322e-16
6153.1808    2.7114e-16
6154.1955    2.7258e-16
6155.2102    2.7277e-16
6156.2249    2.7532e-16
6157.2396    2.7392e-16
6158.2543    2.6800e-16
6159.2690    2.6948e-16
6160.2837    2.7375e-16
6161.2984    2.6838e-16
6162.3131    2.7012e-16
6163.3278    2.7177e-16
6164.3425    2.6954e-16
6165.3572    2.7306e-16
6166.3719    2.6862e-16
6167.3867    2.7028e-16
6168.4014    2.7618e-16
6169.4161    2.7559e-16
6170.4308    2.6999e-16
6171.4455    2.7269e-16
6172.4602    2.7118e-16
6173.4749    2.6858e-16
6174.4896    2.6753e-16
6175.5043    2.7136e-16
6176.5190    2.7006e-16
6177.5337    2.6869e-16
6178.5484    2.7018e-16
6179.5631    2.6833e-16
6180.5778    2.7022e-16
6181.5925    2.6966e-16
6182.6072    2.6358e-16
6183.6219    2.6460e-16
6184.6366    2.6935e-16
6185.6513    2.7338e-16
6186.6660    2.7900e-16
6187.6807    2.7538e-16
6188.6954    2.7031e-16
6189.7101    2.6913e-16
6190.7248    2.7053e-16
6191.7395    2.6636e-16
6192.7542    2.7159e-16
6193.7689    2.6799e-16
6194.7836    2.6756e-16
6195.7983    2.6423e-16
6196.8130    2.7335e-16
6197.8277    2.7070e-16
6198.8424    2.7142e-16
6199.8571    2.7034e-16
6200.8718    2.6860e-16
6201.8865    2.6778e-16
6202.9013    2.7076e-16
6203.9160    2.7060e-16
6204.9307    2.6697e-16
6205.9454    2.6784e-16
6206.9601    2.7191e-16
6207.9748    2.6985e-16
6208.9895    2.7062e-16
6210.0042    2.6761e-16
6211.0189    2.6858e-16
6212.0336    2.6833e-16
6213.0483    2.6740e-16
6214.0630    2.6460e-16
6215.0777    2.6550e-16
6216.0924    2.6868e-16
6217.1071    2.6644e-16
6218.1218    2.6457e-16
6219.1365    2.6519e-16
6220.1512    2.6679e-16
6221.1659    2.6807e-16
6222.1806    2.6379e-16
6223.1953    2.6075e-16
6224.2100    2.6508e-16
6225.2247    2.6622e-16
6226.2394    2.6397e-16
6227.2541    2.6435e-16
6228.2688    2.6569e-16
6229.2835    2.6534e-16
6230.2982    2.6455e-16
6231.3129    2.6427e-16
6232.3276    2.6329e-16
6233.3423    2.6058e-16
6234.3570    2.6660e-16
6235.3717    2.6550e-16
6236.3864    2.6718e-16
6237.4012    2.6363e-16
6238.4159    2.6066e-16
6239.4306    2.6064e-16
6240.4453    2.6186e-16
6241.4600    2.6929e-16
6242.4747    2.6641e-16
6243.4894    2.7151e-16
6244.5041    2.6681e-16
6245.5188    2.6304e-16
6246.5335    2.6803e-16
6247.5482    2.6811e-16
6248.5629    2.6168e-16
6249.5776    2.5218e-16
6250.5923    2.5409e-16
6251.6070    2.5423e-16
6252.6217    2.6519e-16
6253.6364    2.6358e-16
6254.6511    2.6905e-16
6255.6658    2.6304e-16
6256.6805    2.6726e-16
6257.6952    2.6451e-16
6258.7099    2.6877e-16
6259.7246    2.6312e-16
6260.7393    2.6496e-16
6261.7540    2.6610e-16
6262.7687    2.6293e-16
6263.7834    2.6128e-16
6264.7981    2.6428e-16
6265.8128    2.5942e-16
6266.8275    2.5831e-16
6267.8422    2.5704e-16
6268.8569    2.6126e-16
6269.8716    2.6084e-16
6270.8863    2.5921e-16
6271.9010    2.5861e-16
6272.9158    2.5929e-16
6273.9305    2.5659e-16
6274.9452    2.5727e-16
6275.9599    2.5562e-16
6276.9746    2.5281e-16
6277.9893    2.5083e-16
6279.0040    2.4904e-16
6280.0187    2.4814e-16
6281.0334    2.5072e-16
6282.0481    2.5419e-16
6283.0628    2.5477e-16
6284.0775    2.5624e-16
6285.0922    2.5583e-16
6286.1069    2.5329e-16
6287.1216    2.5375e-16
6288.1363    2.5492e-16
6289.1510    2.5913e-16
6290.1657    2.6115e-16
6291.1804    2.5624e-16
6292.1951    2.5322e-16
6293.2098    2.5601e-16
6294.2245    2.5137e-16
6295.2392    2.5550e-16
6296.2539    2.5743e-16
6297.2686    2.5171e-16
6298.2833    2.5214e-16
6299.2980    2.5055e-16
6300.3127    2.4640e-16
6301.3274    2.5684e-16
6302.3421    2.5013e-16
6303.3568    2.5241e-16
6304.3715    2.5314e-16
6305.3862    2.5078e-16
6306.4009    2.5562e-16
6307.4157    2.5334e-16
6308.4304    2.5780e-16
6309.4451    2.5528e-16
6310.4598    2.5140e-16
6311.4745    2.5438e-16
6312.4892    2.5108e-16
6313.5039    2.5119e-16
6314.5186    2.5242e-16
6315.5333    2.5508e-16
6316.5480    2.5709e-16
6317.5627    2.5803e-16
6318.5774    2.5081e-16
6319.5921    2.5158e-16
6320.6068    2.5566e-16
6321.6215    2.5587e-16
6322.6362    2.5614e-16
6323.6509    2.5101e-16
6324.6656    2.5171e-16
6325.6803    2.5533e-16
6326.6950    2.5806e-16
6327.7097    2.5869e-16
6328.7244    2.5965e-16
6329.7391    2.5859e-16
6330.7538    2.5385e-16
6331.7685    2.5257e-16
6332.7832    2.5042e-16
6333.7979    2.4911e-16
6334.8126    2.5160e-16
6335.8273    2.5594e-16
6336.8420    2.5519e-16
6337.8567    2.5270e-16
6338.8714    2.5626e-16
6339.8861    2.5779e-16
6340.9008    2.5236e-16
6341.9155    2.5232e-16
6342.9303    2.5468e-16
6343.9450    2.5110e-16
6344.9597    2.5211e-16
6345.9744    2.4779e-16
6346.9891    2.4944e-16
6348.0038    2.5239e-16
6349.0185    2.5046e-16
6350.0332    2.4701e-16
6351.0479    2.4527e-16
6352.0626    2.4906e-16
6353.0773    2.4918e-16
6354.0920    2.4861e-16
6355.1067    2.5002e-16
6356.1214    2.5101e-16
6357.1361    2.5040e-16
6358.1508    2.5125e-16
6359.1655    2.5041e-16
6360.1802    2.4840e-16
6361.1949    2.5098e-16
6362.2096    2.4895e-16
6363.2243    2.4586e-16
6364.2390    2.4768e-16
6365.2537    2.5044e-16
6366.2684    2.5076e-16
6367.2831    2.4535e-16
6368.2978    2.4045e-16
6369.3125    2.4322e-16
6370.3272    2.4595e-16
6371.3419    2.4919e-16
6372.3566    2.4802e-16
6373.3713    2.4332e-16
6374.3860    2.4221e-16
6375.4007    2.4546e-16
6376.4154    2.4984e-16
6377.4302    2.4964e-16
6378.4449    2.4989e-16
6379.4596    2.4829e-16
6380.4743    2.4464e-16
6381.4890    2.4547e-16
6382.5037    2.4686e-16
6383.5184    2.4524e-16
6384.5331    2.4331e-16
6385.5478    2.4339e-16
6386.5625    2.4538e-16
6387.5772    2.4418e-16
6388.5919    2.4229e-16
6389.6066    2.4558e-16
6390.6213    2.4786e-16
6391.6360    2.4561e-16
6392.6507    2.4534e-16
6393.6654    2.4491e-16
6394.6801    2.4507e-16
6395.6948    2.4576e-16
6396.7095    2.4589e-16
6397.7242    2.4614e-16
6398.7389    2.4597e-16
6399.7536    2.4309e-16
6400.7683    2.4181e-16
6401.7830    2.4219e-16
6402.7977    2.4755e-16
6403.8124    2.4134e-16
6404.8271    2.4202e-16
6405.8418    2.3892e-16
6406.8565    2.4400e-16
6407.8712    2.4399e-16
6408.8859    2.4642e-16
6409.9006    2.4289e-16
6410.9153    2.4133e-16
6411.9300    2.4123e-16
6412.9448    2.4604e-16
6413.9595    2.4306e-16
6414.9742    2.4784e-16
6415.9889    2.4526e-16
6417.0036    2.4997e-16
6418.0183    2.4443e-16
6419.0330    2.4233e-16
6420.0477    2.4390e-16
6421.0624    2.4180e-16
6422.0771    2.4401e-16
6423.0918    2.4396e-16
6424.1065    2.3984e-16
6425.1212    2.4144e-16
6426.1359    2.4235e-16
6427.1506    2.4244e-16
6428.1653    2.4475e-16
6429.1800    2.4515e-16
6430.1947    2.5270e-16
6431.2094    2.5681e-16
6432.2241    2.5644e-16
6433.2388    2.4999e-16
6434.2535    2.4402e-16
6435.2682    2.4451e-16
6436.2829    2.4566e-16
6437.2976    2.4804e-16
6438.3123    2.4606e-16
6439.3270    2.4294e-16
6440.3417    2.4145e-16
6441.3564    2.4282e-16
6442.3711    2.4509e-16
6443.3858    2.4393e-16
6444.4005    2.4290e-16
6445.4152    2.4276e-16
6446.4299    2.4040e-16
6447.4447    2.3937e-16
6448.4594    2.3837e-16
6449.4741    2.3383e-16
6450.4888    2.3445e-16
6451.5035    2.4107e-16
6452.5182    2.4362e-16
6453.5329    2.3967e-16
6454.5476    2.3642e-16
6455.5623    2.3895e-16
6456.5770    2.3965e-16
6457.5917    2.3964e-16
6458.6064    2.3938e-16
6459.6211    2.4192e-16
6460.6358    2.4408e-16
6461.6505    2.3995e-16
6462.6652    2.3800e-16
6463.6799    2.3802e-16
6464.6946    2.3812e-16
6465.7093    2.3876e-16
6466.7240    2.3983e-16
6467.7387    2.3977e-16
6468.7534    2.4426e-16
6469.7681    2.4289e-16
6470.7828    2.4131e-16
6471.7975    2.4033e-16
6472.8122    2.4035e-16
6473.8269    2.3534e-16
6474.8416    2.4043e-16
6475.8563    2.4265e-16
6476.8710    2.4051e-16
6477.8857    2.4354e-16
6478.9004    2.3886e-16
6479.9151    2.3668e-16
6480.9298    2.3750e-16
6481.9445    2.3833e-16
6482.9593    2.3790e-16
6483.9740    2.3970e-16
6484.9887    2.4167e-16
6486.0034    2.3967e-16
6487.0181    2.4000e-16
6488.0328    2.3780e-16
6489.0475    2.3508e-16
6490.0622    2.3670e-16
6491.0769    2.3851e-16
6492.0916    2.3800e-16
6493.1063    2.3916e-16
6494.1210    2.4060e-16
6495.1357    2.4202e-16
6496.1504    2.4305e-16
6497.1651    2.4238e-16
6498.1798    2.4144e-16
6499.1945    2.4035e-16
6500.2092    2.3677e-16
6501.2239    2.3590e-16
6502.2386    2.3511e-16
6503.2533    2.3866e-16
6504.2680    2.4011e-16
6505.2827    2.3993e-16
6506.2974    2.3439e-16
6507.3121    2.3521e-16
6508.3268    2.4092e-16
6509.3415    2.3502e-16
6510.3562    2.3625e-16
6511.3709    2.3883e-16
6512.3856    2.3911e-16
6513.4003    2.4297e-16
6514.4150    2.3997e-16
6515.4297    2.3516e-16
6516.4444    2.3650e-16
6517.4592    2.3531e-16
6518.4739    2.3792e-16
6519.4886    2.3045e-16
6520.5033    2.3345e-16
6521.5180    2.3749e-16
6522.5327    2.3553e-16
6523.5474    2.3350e-16
6524.5621    2.3088e-16
6525.5768    2.3648e-16
6526.5915    2.3702e-16
6527.6062    2.3815e-16
6528.6209    2.3805e-16
6529.6356    2.3657e-16
6530.6503    2.3605e-16
6531.6650    2.3464e-16
6532.6797    2.3321e-16
6533.6944    2.3313e-16
6534.7091    2.3417e-16
6535.7238    2.3449e-16
6536.7385    2.3243e-16
6537.7532    2.3197e-16
6538.7679    2.3285e-16
6539.7826    2.3321e-16
6540.7973    2.3298e-16
6541.8120    2.3113e-16
6542.8267    2.3097e-16
6543.8414    2.3229e-16
6544.8561    2.3363e-16
6545.8708    2.3301e-16
6546.8855    2.3021e-16
6547.9002    2.3332e-16
6548.9149    2.3629e-16
6549.9296    2.3342e-16
6550.9443    2.3309e-16
6551.9590    2.3287e-16
6552.9738    2.3242e-16
6553.9885    2.3315e-16
6555.0032    2.3441e-16
6556.0179    2.2992e-16
6557.0326    2.3465e-16
6558.0473    2.3592e-16
6559.0620    2.3556e-16
6560.0767    2.3124e-16
6561.0914    2.3489e-16
6562.1061    2.3304e-16
6563.1208    2.3141e-16
6564.1355    2.3400e-16
6565.1502    2.2816e-16
6566.1649    2.3418e-16
6567.1796    2.3074e-16
6568.1943    2.3058e-16
6569.2090    2.3048e-16
6570.2237    2.3385e-16
6571.2384    2.3409e-16
6572.2531    2.2946e-16
6573.2678    2.3409e-16
6574.2825    2.3329e-16
6575.2972    2.3199e-16
6576.3119    2.2870e-16
6577.3266    2.2871e-16
6578.3413    2.2893e-16
6579.3560    2.3675e-16
6580.3707    2.3628e-16
6581.3854    2.3313e-16
6582.4001    2.3310e-16
6583.4148    2.3483e-16
6584.4295    2.3371e-16
6585.4442    2.3055e-16
6586.4589    2.2937e-16
6587.4737    2.2751e-16
6588.4884    2.3065e-16
6589.5031    2.3367e-16
6590.5178    2.2964e-16
6591.5325    2.3023e-16
6592.5472    2.3067e-16
6593.5619    2.2743e-16
6594.5766    2.2768e-16
6595.5913    2.3043e-16
6596.6060    2.3228e-16
6597.6207    2.3153e-16
6598.6354    2.3314e-16
6599.6501    2.3464e-16
6600.6648    2.2955e-16
6601.6795    2.3210e-16
6602.6942    2.3315e-16
6603.7089    2.2985e-16
6604.7236    2.3053e-16
6605.7383    2.2880e-16
6606.7530    2.2958e-16
6607.7677    2.3077e-16
6608.7824    2.2787e-16
6609.7971    2.3227e-16
6610.8118    2.3457e-16
6611.8265    2.3433e-16
6612.8412    2.2743e-16
6613.8559    2.3123e-16
6614.8706    2.2246e-16
6615.8853    2.2931e-16
6616.9000    2.3086e-16
6617.9147    2.3315e-16
6618.9294    2.3753e-16
6619.9441    2.3385e-16
6620.9588    2.3233e-16
6621.9735    2.3081e-16
6622.9883    2.3239e-16
6624.0030    2.3194e-16
6625.0177    2.3153e-16
6626.0324    2.3273e-16
6627.0471    2.2875e-16
6628.0618    2.3284e-16
6629.0765    2.3446e-16
6630.0912    2.3059e-16
6631.1059    2.3177e-16
6632.1206    2.3419e-16
6633.1353    2.3544e-16
6634.1500    2.3290e-16
6635.1647    2.3061e-16
6636.1794    2.3265e-16
6637.1941    2.3439e-16
6638.2088    2.3607e-16
6639.2235    2.3503e-16
6640.2382    2.3269e-16
6641.2529    2.3302e-16
6642.2676    2.3488e-16
6643.2823    2.3595e-16
6644.2970    2.3442e-16
6645.3117    2.3180e-16
6646.3264    2.3287e-16
6647.3411    2.3659e-16
6648.3558    2.4165e-16
6649.3705    2.3877e-16
6650.3852    2.3371e-16
6651.3999    2.3895e-16
6652.4146    2.3909e-16
6653.4293    2.4098e-16
6654.4440    2.3845e-16
6655.4587    2.4154e-16
6656.4734    2.3864e-16
6657.4882    2.4444e-16
6658.5029    2.4138e-16
6659.5176    2.4117e-16
6660.5323    2.3825e-16
6661.5470    2.3870e-16
6662.5617    2.3701e-16
6663.5764    2.4387e-16
6664.5911    2.4615e-16
6665.6058    2.4425e-16
6666.6205    2.4503e-16
6667.6352    2.4541e-16
6668.6499    2.4708e-16
6669.6646    2.4737e-16
6670.6793    2.4757e-16
6671.6940    2.4673e-16
6672.7087    2.4798e-16
6673.7234    2.4895e-16
6674.7381    2.5045e-16
6675.7528    2.4954e-16
6676.7675    2.5281e-16
6677.7822    2.5540e-16
6678.7969    2.5281e-16
6679.8116    2.5704e-16
6680.8263    2.6200e-16
6681.8410    2.6451e-16
6682.8557    2.7016e-16
6683.8704    2.7475e-16
6684.8851    2.7234e-16
6685.8998    2.6979e-16
6686.9145    2.6817e-16
6687.9292    2.7105e-16
6688.9439    2.7744e-16
6689.9586    2.8066e-16
6690.9733    2.8512e-16
6691.9880    2.8877e-16
6693.0028    2.9699e-16
6694.0175    3.1434e-16
6695.0322    3.7346e-16
6696.0469    5.0283e-16
6697.0616    6.6816e-16
6698.0763    8.0734e-16
6699.0910    9.0127e-16
6700.1057    9.1623e-16
6701.1204    7.4732e-16
6702.1351    4.5718e-16
6703.1498    3.0075e-16
6704.1645    2.6947e-16
6705.1792    2.6538e-16
6706.1939    2.6403e-16
6707.2086    2.6145e-16
6708.2233    2.5274e-16
6709.2380    2.5608e-16
6710.2527    2.5560e-16
6711.2674    2.4787e-16
6712.2821    2.4426e-16
6713.2968    2.4883e-16
6714.3115    2.4662e-16
6715.3262    2.4865e-16
6716.3409    2.5121e-16
6717.3556    2.5812e-16
6718.3703    2.6429e-16
6719.3850    2.7037e-16
6720.3997    2.7118e-16
6721.4144    2.6576e-16
6722.4291    2.5898e-16
6723.4438    2.4812e-16
6724.4585    2.3855e-16
6725.4732    2.3919e-16
6726.4879    2.3949e-16
6727.5027    2.3800e-16
6728.5174    2.3527e-16
6729.5321    2.3464e-16
6730.5468    2.3612e-16
6731.5615    2.3445e-16
6732.5762    2.3500e-16
6733.5909    2.3162e-16
6734.6056    2.3474e-16
6735.6203    2.2891e-16
6736.6350    2.2814e-16
6737.6497    2.2990e-16
6738.6644    2.3052e-16
6739.6791    2.2743e-16
6740.6938    2.2700e-16
6741.7085    2.2596e-16
6742.7232    2.2562e-16
6743.7379    2.2580e-16
6744.7526    2.2463e-16
6745.7673    2.2344e-16
6746.7820    2.2462e-16
6747.7967    2.1950e-16
6748.8114    2.2768e-16
6749.8261    2.2689e-16
6750.8408    2.2060e-16
6751.8555    2.2283e-16
6752.8702    2.2230e-16
6753.8849    2.2076e-16
6754.8996    2.1909e-16
6755.9143    2.1739e-16
6756.9290    2.2066e-16
6757.9437    2.2081e-16
6758.9584    2.1961e-16
6759.9731    2.1969e-16
6760.9878    2.1933e-16
6762.0025    2.1589e-16
6763.0173    2.1469e-16
6764.0320    2.1750e-16
6765.0467    2.1798e-16
6766.0614    2.1500e-16
6767.0761    2.1987e-16
6768.0908    2.1827e-16
6769.1055    2.1647e-16
6770.1202    2.1778e-16
6771.1349    2.1423e-16
6772.1496    2.1229e-16
6773.1643    2.1190e-16
6774.1790    2.1261e-16
6775.1937    2.1139e-16
6776.2084    2.0924e-16
6777.2231    2.1071e-16
6778.2378    2.1340e-16
6779.2525    2.1174e-16
6780.2672    2.1036e-16
6781.2819    2.1088e-16
6782.2966    2.1003e-16
6783.3113    2.0573e-16
6784.3260    2.0824e-16
6785.3407    2.0671e-16
6786.3554    2.0778e-16
6787.3701    2.0894e-16
6788.3848    2.0726e-16
6789.3995    2.0987e-16
6790.4142    2.0978e-16
6791.4289    2.0721e-16
6792.4436    2.0949e-16
6793.4583    2.0769e-16
6794.4730    2.0791e-16
6795.4877    2.0649e-16
6796.5024    2.0528e-16
6797.5172    2.0613e-16
6798.5319    2.0766e-16
6799.5466    2.0433e-16
6800.5613    2.0371e-16
6801.5760    2.0083e-16
6802.5907    2.0185e-16
6803.6054    2.0345e-16
6804.6201    2.0403e-16
6805.6348    2.0371e-16
6806.6495    2.0206e-16
6807.6642    2.0226e-16
6808.6789    2.0120e-16
6809.6936    2.0009e-16
6810.7083    1.9839e-16
6811.7230    1.9825e-16
6812.7377    1.9845e-16
6813.7524    2.0208e-16
6814.7671    2.0039e-16
6815.7818    2.0539e-16
6816.7965    2.0395e-16
6817.8112    2.0568e-16
6818.8259    2.0135e-16
6819.8406    1.9957e-16
6820.8553    1.9716e-16
6821.8700    1.9986e-16
6822.8847    2.0191e-16
6823.8994    1.9915e-16
6824.9141    1.9370e-16
6825.9288    1.9285e-16
6826.9435    1.9973e-16
6827.9582    1.9951e-16
6828.9729    1.9556e-16
6829.9876    1.9638e-16
6831.0023    1.9631e-16
6832.0170    1.9268e-16
6833.0318    1.9075e-16
6834.0465    1.9148e-16
6835.0612    1.9210e-16
6836.0759    1.9552e-16
6837.0906    1.9855e-16
6838.1053    1.9648e-16
6839.1200    1.9429e-16
6840.1347    1.9797e-16
6841.1494    2.0022e-16
6842.1641    1.9832e-16
6843.1788    1.9376e-16
6844.1935    1.9280e-16
6845.2082    1.9429e-16
6846.2229    1.9663e-16
6847.2376    1.9676e-16
6848.2523    1.9405e-16
6849.2670    1.9284e-16
6850.2817    2.0034e-16
6851.2964    2.0522e-16
6852.3111    2.1357e-16
6853.3258    2.2720e-16
6854.3405    2.5048e-16
6855.3552    2.6265e-16
6856.3699    2.6392e-16
6857.3846    2.5658e-16
6858.3993    2.2477e-16
6859.4140    2.0275e-16
6860.4287    1.9467e-16
6861.4434    1.9431e-16
6862.4581    1.9084e-16
6863.4728    1.9278e-16
6864.4875    1.9224e-16
6865.5022    1.9461e-16
