#SIMPLE  =                    T / Fits standard                                  
#BITPIX  =                  -32 / Bits per pixel                                 
#NAXIS   =                    1 / Number of axes                                 
#NAXIS1  =                 1728 / Axis length                                    
#EXTEND  =                    T / File may contain extensions                    
#ORIGIN  = 'NOAO-IRAF FITS Image Kernel July 2003' / FITS file originator        
#IRAF-TLM= '2020-08-02T12:36:41' / Time of last modification                     
#TELESCOP= 'TNG     '           / data have been taken at the TNG                
#INSTRUME= 'LRS     '           / instrument name                                
#EXP_ID  = 'LRS.2020-07-16T22-00-51.741' / exposure identifier                   
#FILENAME= 'LRS.2020-07-16T22-00-51.741.fts' / FITS filename ([EXP_ID].fits)     
#DATE    = '2020-08-02T12:36:41' / date file was written                         
#TIME    = '22:00:51'           / time file was written                          
#RA-RAD  =    3.943697690963745 / right ascension (radiants as float)            
#DEC-RAD =   0.7350581884384155 / declination (radiants as float)                
#RA-DEG  =   15.063815116882324 / right asc. (hours as float)                    
#DEC-DEG =    42.11573028564453 / declination (degrees as float)                 
#ROT-OFF =    2.171189546585083 / Rotator Offset Angle rad (-pi +pi)             
#POSANG  =                125.0 / Position angle (degrees)                       
#EQX-OBS =               2000.0 / equinox = 2000                                 
#EQUINOX =               2000.0 / equinox of Catalogue Coordinate                
#AIRMASS =             1.055635 / air mass                                       
#AZ      =    2.437892436981201 / starting azimuth radiants                      
#EL      =   1.2446894645690918 / starting elevation radiants                    
#ROT-POS =    1.797879934310913 / starting Derotator angle radiants              
#PARANG  =   2.2700109481811523 / starting Parallactic angle radians             
#CTYPE1  = 'LINEAR  '           / units are pixel                                
#OBJCAT  = 'ZTF20ablygyy'       / Object name catalog                            
#RA      =   15.063878059387207 / RA of catalog, float hours                     
#DEC     =    42.11408233642578 / DEC of catalog, float degrees                  
#LST     =   16.160486221313477 / Local Sideral Time                             
#PIXSIZE =                 13.5 / size of pixel on detector (microns)            
#NCHIPS  =                  1.0 / chips number                                   
#CRPIX1  =                   1. / reference X pixel                              
#CRDELT1 =                  1.0 / binning (X axis)                               
#CRDELT2 =                  1.0 / binning (Y axis)                               
#DETOFF1 =                  0.0 / X offset on detector                           
#DETOFF2 =                  0.0 / Y offset on detector                           
#DETSIZ1 =               2100.0 / detector size (X axis)                         
#DETSIZ2 =               2100.0 / detector size (Y axis)                         
#DETRDMOD=                  1.0 / detector read mode 1 left, 2 right, 9 both     
#EXPSTART= '21:40:28'           / exposure start time (UT)                       
#DATE-OBS= '2020-07-16T21:40:28.381' / date of observation                       
#GAIN-LEF=                  1.0 / Gain left factor electron ADU                  
#GAIN-RIG=                  1.0 / Gain right factor electron ADU                 
#DET_ID  = 'E2V4240 '           / Detector ID                                    
#OBS-TYPE= 'OBJECT  '           / observation type                               
#PROGRAM = 'OPT20A_18'          / program name                                   
#FLT_ID  = 'OPEN    '           / Filter type                                    
#GRM_ID  = 'LR-B    '           / Grism type                                     
#SLT_ID  = 'Long_Slit_1.0'      / Slit type                                      
#LMP_ID  = 'Parking '           / Lamp type                                      
#PSLR_ID = 'OUT     '           / Polarimeter slider                             
#RTY1_ID = '+45     '           / Rotary Lambda4                                 
#RTY2_ID = '+0      '           / Rotary Lambda2                                 
#FLT_ENC =            1724536.0 / Encoder Filter                                 
#GRM_ENC =              50915.0 / Encoder Grism                                  
#SLT_ENC =             492004.0 / Encoder Slit                                   
#FOC_ENC =               1842.0 / Encoder Focus                                  
#PSLR_ENC=               1000.0 / Encoder PSlider                                
#RTY1_ENC=              49209.0 / Encoder Rotary1                                
#RTY2_ENC=               1578.0 / Encoder Rotary2                                
#BIAS_1  =   27.282672882080078 / ODLR                                           
#BIAS_2  =   15.132810592651367 / RDL                                            
#BIAS_3  =   15.102712631225586 / RDR                                            
#BIAS_4  =    22.15312385559082 / DD                                             
#BIAS_5  =    6.999114990234375 / SS                                             
#BIAS_9  =   0.9971010088920593 / OG1                                            
#BIAS_10 =   1.9989409446716309 / OG2                                            
#E_GAIN  =                  2.0 / Electronic Gain                                
#E_FILTER=                  2.0 / Electronic Filter                              
#TENS    =                  0.0 / Temperature Ens Plate                          
#TBAR4   =    2.700000047683716 / Temperature bar 4                              
#TBAR8   =     3044.10009765625 / Temperature bar 8                              
#TGRM    =    3052.800048828125 / Temperature grm plate                          
#TCAMERA =    2.700000047683716 / Temperature camera                             
#TSHUTTER=    76.80000305175781 / Temperature shutter                            
#TNG_COMM= '0       '           / TNG comment                                    
#COMMENT FITS (Flexible Image Transport System) format is defined in 'Astronomy  
#COMMENT and Astrophysics', volume 376, page 359; bibcode: 2001A&A...376..359H   
#EXPTIME =             1200.000 / Exposure time                                  
#WCSDIM  =                    1                                                  
#CDELT1  =      2.7320515747834                                                  
#CD1_1   =      2.7320515747834                                                  
#LTM1_1  =                   1.                                                  
#WAT0_001= 'system=equispec'                                                     
#WAT1_001= 'wtype=linear label=Wavelength units=angstroms'                       
#TRIM    = 'Aug  2 13:38 Trim data section is [370:2097,850:1200]'               
#CCDSEC  = '[370:2097,850:1200]'                                                 
#BIASSEC = '[1:1728,1:351]'                                                      
#CCDMEANT=           1280843052                                                  
#CCDPROC = 'Aug  2 13:44 CCD processing done'                                    
#ZEROCOR = 'Aug  2 13:41 Zero level correction image is zero'                    
#FLATCOR = 'Aug  2 13:44 Flat field image is flatre with scale=1.'               
#BANDID1 = 'spectrum - background fit, weights none, clean no'                   
#APNUM1  = '1 1 172.24 180.03'                                                   
#CRVAL1  =      3271.2174316047                                                  
#DC-FLAG =                    0                                                  
#DCLOG1  = 'REFSPEC1 = arc_nehg_sn1'                                             
#EX-FLAG =                    0                                                  
#CA-FLAG =                    0                                                  
#BUNIT   = 'erg/cm2/s/A'                                                         
#                                                                                
#END                                                                             
#SIMPLE  =                    T / Fits standard                                  
#BITPIX  =                  -32 / Bits per pixel                                 
#NAXIS   =                    1 / Number of axes                                 
#NAXIS1  =                 1728 / Axis length                                    
#EXTEND  =                    T / File may contain extensions                    
#ORIGIN  = 'NOAO-IRAF FITS Image Kernel July 2003' / FITS file originator        
#IRAF-TLM= '2020-08-02T12:36:50' / Time of last modification                     
#TELESCOP= 'TNG     '           / data have been taken at the TNG                
#INSTRUME= 'LRS     '           / instrument name                                
#EXP_ID  = 'LRS.2020-07-16T22-21-15.894' / exposure identifier                   
#FILENAME= 'LRS.2020-07-16T22-21-15.894.fts' / FITS filename ([EXP_ID].fits)     
#DATE    = '2020-08-02T12:36:50' / date file was written                         
#TIME    = '22:21:15'           / time file was written                          
#RA-RAD  =   3.9436898231506348 / right ascension (radiants as float)            
#DEC-RAD =   0.7350521683692932 / declination (radiants as float)                
#RA-DEG  =   15.063785552978516 / right asc. (hours as float)                    
#DEC-DEG =   42.115386962890625 / declination (degrees as float)                 
#ROT-OFF =    2.171189546585083 / Rotator Offset Angle rad (-pi +pi)             
#POSANG  =                125.0 / Position angle (degrees)                       
#EQX-OBS =               2000.0 / equinox = 2000                                 
#EQUINOX =               2000.0 / equinox of Catalogue Coordinate                
#AIRMASS =             1.076922 / air mass                                       
#AZ      =   2.3267452716827393 / starting azimuth radiants                      
#EL      =   1.1905466318130493 / starting elevation radiants                    
#ROT-POS =    2.016078233718872 / starting Derotator angle radiants              
#PARANG  =   2.1060001850128174 / starting Parallactic angle radians             
#CTYPE1  = 'LINEAR  '           / units are pixel                                
#OBJCAT  = 'ZTF20ablygyy'       / Object name catalog                            
#RA      =   15.063878059387207 / RA of catalog, float hours                     
#DEC     =    42.11408233642578 / DEC of catalog, float degrees                  
#LST     =    16.50141716003418 / Local Sideral Time                             
#PIXSIZE =                 13.5 / size of pixel on detector (microns)            
#NCHIPS  =                  1.0 / chips number                                   
#CRPIX1  =                   1. / reference X pixel                              
#CRDELT1 =                  1.0 / binning (X axis)                               
#CRDELT2 =                  1.0 / binning (Y axis)                               
#DETOFF1 =                  0.0 / X offset on detector                           
#DETOFF2 =                  0.0 / Y offset on detector                           
#DETSIZ1 =               2100.0 / detector size (X axis)                         
#DETSIZ2 =               2100.0 / detector size (Y axis)                         
#DETRDMOD=                  1.0 / detector read mode 1 left, 2 right, 9 both     
#EXPSTART= '22:00:52'           / exposure start time (UT)                       
#DATE-OBS= '2020-07-16T22:00:52.756' / date of observation                       
#GAIN-LEF=                  1.0 / Gain left factor electron ADU                  
#GAIN-RIG=                  1.0 / Gain right factor electron ADU                 
#DET_ID  = 'E2V4240 '           / Detector ID                                    
#OBS-TYPE= 'OBJECT  '           / observation type                               
#PROGRAM = 'OPT20A_18'          / program name                                   
#FLT_ID  = 'OPEN    '           / Filter type                                    
#GRM_ID  = 'LR-B    '           / Grism type                                     
#SLT_ID  = 'Long_Slit_1.0'      / Slit type                                      
#LMP_ID  = 'Parking '           / Lamp type                                      
#PSLR_ID = 'OUT     '           / Polarimeter slider                             
#RTY1_ID = '+45     '           / Rotary Lambda4                                 
#RTY2_ID = '+0      '           / Rotary Lambda2                                 
#FLT_ENC =            1724536.0 / Encoder Filter                                 
#GRM_ENC =              50916.0 / Encoder Grism                                  
#SLT_ENC =             492004.0 / Encoder Slit                                   
#FOC_ENC =               1842.0 / Encoder Focus                                  
#PSLR_ENC=               1000.0 / Encoder PSlider                                
#RTY1_ENC=              49209.0 / Encoder Rotary1                                
#RTY2_ENC=               1578.0 / Encoder Rotary2                                
#BIAS_1  =   27.282672882080078 / ODLR                                           
#BIAS_2  =   15.132810592651367 / RDL                                            
#BIAS_3  =   15.102712631225586 / RDR                                            
#BIAS_4  =    22.15312385559082 / DD                                             
#BIAS_5  =    6.999114990234375 / SS                                             
#BIAS_9  =   0.9971010088920593 / OG1                                            
#BIAS_10 =   1.9989409446716309 / OG2                                            
#E_GAIN  =                  2.0 / Electronic Gain                                
#E_FILTER=                  2.0 / Electronic Filter                              
#TENS    =                  0.0 / Temperature Ens Plate                          
#TBAR4   =    2.700000047683716 / Temperature bar 4                              
#TBAR8   =               3044.0 / Temperature bar 8                              
#TGRM    =    3052.800048828125 / Temperature grm plate                          
#TCAMERA =    2.700000047683716 / Temperature camera                             
#TSHUTTER=    76.80000305175781 / Temperature shutter                            
#TNG_COMM= '0       '           / TNG comment                                    
#COMMENT FITS (Flexible Image Transport System) format is defined in 'Astronomy  
#COMMENT and Astrophysics', volume 376, page 359; bibcode: 2001A&A...376..359H   
#EXPTIME =             1200.000 / Exposure time                                  
#WCSDIM  =                    1                                                  
#CDELT1  =      2.7316476897943                                                  
#CD1_1   =      2.7316476897943                                                  
#LTM1_1  =                   1.                                                  
#WAT0_001= 'system=equispec'                                                     
#WAT1_001= 'wtype=linear label=Wavelength units=angstroms'                       
#TRIM    = 'Aug  2 13:38 Trim data section is [370:2097,850:1200]'               
#CCDSEC  = '[370:2097,850:1200]'                                                 
#BIASSEC = '[1:1728,1:351]'                                                      
#CCDMEANT=           1280843052                                                  
#CCDPROC = 'Aug  2 13:44 CCD processing done'                                    
#ZEROCOR = 'Aug  2 13:41 Zero level correction image is zero'                    
#FLATCOR = 'Aug  2 13:44 Flat field image is flatre with scale=1.'               
#BANDID1 = 'spectrum - background fit, weights none, clean no'                   
#APNUM1  = '1 1 173.21 181.35'                                                   
#CRVAL1  =      3271.8828734822                                                  
#DC-FLAG =                    0                                                  
#DCLOG1  = 'REFSPEC1 = arc_nehg_sn2'                                             
#EX-FLAG =                    0                                                  
#CA-FLAG =                    0                                                  
#BUNIT   = 'erg/cm2/s/A'                                                         
#END
#
3590.8674    5.7001e-16
3593.5995    5.7396e-16
3596.3315    5.9651e-16
3599.0636    5.7195e-16
3601.7956    5.8201e-16
3604.5277    5.8160e-16
3607.2597    5.7799e-16
3609.9918    5.7592e-16
3612.7238    5.6076e-16
3615.4559    5.8903e-16
3618.1880    5.7375e-16
3620.9200    5.7514e-16
3623.6521    5.7324e-16
3626.3841    5.8104e-16
3629.1162    5.6805e-16
3631.8482    5.7900e-16
3634.5803    5.9687e-16
3637.3123    5.9366e-16
3640.0444    5.9434e-16
3642.7764    5.5728e-16
3645.5085    5.6104e-16
3648.2405    5.5445e-16
3650.9726    5.2574e-16
3653.7046    5.5851e-16
3656.4367    5.5210e-16
3659.1687    5.6488e-16
3661.9008    5.4735e-16
3664.6328    5.4123e-16
3667.3649    5.4527e-16
3670.0969    5.5147e-16
3672.8290    5.4464e-16
3675.5610    5.4034e-16
3678.2931    5.5231e-16
3681.0251    5.4919e-16
3683.7572    5.2794e-16
3686.4892    5.1131e-16
3689.2213    5.3413e-16
3691.9533    5.2127e-16
3694.6854    5.1964e-16
3697.4174    5.3548e-16
3700.1495    5.4105e-16
3702.8816    5.3602e-16
3705.6136    5.2519e-16
3708.3457    5.3261e-16
3711.0777    5.3868e-16
3713.8098    5.3620e-16
3716.5418    4.9847e-16
3719.2739    5.0127e-16
3722.0059    5.2290e-16
3724.7380    5.2177e-16
3727.4700    5.3126e-16
3730.2021    5.4377e-16
3732.9341    5.3031e-16
3735.6662    5.3036e-16
3738.3982    5.3040e-16
3741.1303    5.1690e-16
3743.8623    5.3493e-16
3746.5944    5.1724e-16
3749.3264    5.3754e-16
3752.0585    5.5896e-16
3754.7905    5.5377e-16
3757.5226    5.4198e-16
3760.2546    5.5224e-16
3762.9867    5.4946e-16
3765.7187    5.4481e-16
3768.4508    5.5488e-16
3771.1828    5.5076e-16
3773.9149    5.5439e-16
3776.6469    5.5161e-16
3779.3790    5.6054e-16
3782.1110    5.3940e-16
3784.8431    5.3930e-16
3787.5752    5.3298e-16
3790.3072    5.5486e-16
3793.0393    5.5909e-16
3795.7713    5.4305e-16
3798.5034    5.5341e-16
3801.2354    5.7848e-16
3803.9675    5.6210e-16
3806.6995    5.5376e-16
3809.4316    5.6869e-16
3812.1636    5.6907e-16
3814.8957    5.6046e-16
3817.6277    5.5396e-16
3820.3598    5.5589e-16
3823.0918    5.6531e-16
3825.8239    5.4950e-16
3828.5559    5.5084e-16
3831.2880    5.4541e-16
3834.0200    5.4310e-16
3836.7521    5.4486e-16
3839.4841    5.5027e-16
3842.2162    5.4509e-16
3844.9482    5.3673e-16
3847.6803    5.5124e-16
3850.4123    5.3743e-16
3853.1444    5.2004e-16
3855.8764    5.2266e-16
3858.6085    5.1207e-16
3861.3405    5.0900e-16
3864.0726    5.0993e-16
3866.8046    4.9927e-16
3869.5367    4.8836e-16
3872.2688    5.0189e-16
3875.0008    5.0918e-16
3877.7329    4.8691e-16
3880.4649    4.9809e-16
3883.1970    4.9978e-16
3885.9290    5.0682e-16
3888.6611    4.9719e-16
3891.3931    4.9153e-16
3894.1252    5.0051e-16
3896.8572    4.9360e-16
3899.5893    5.0288e-16
3902.3213    4.9471e-16
3905.0534    4.9868e-16
3907.7854    5.0669e-16
3910.5175    4.9691e-16
3913.2495    4.9800e-16
3915.9816    4.9544e-16
3918.7136    4.8444e-16
3921.4457    4.8909e-16
3924.1777    4.9938e-16
3926.9098    5.0096e-16
3929.6418    5.0780e-16
3932.3739    5.2334e-16
3935.1059    5.1087e-16
3937.8380    4.9158e-16
3940.5700    4.9655e-16
3943.3021    5.1245e-16
3946.0341    4.9412e-16
3948.7662    4.8245e-16
3951.4982    4.7994e-16
3954.2303    4.7420e-16
3956.9624    4.6596e-16
3959.6944    4.6193e-16
3962.4265    4.8269e-16
3965.1585    4.8299e-16
3967.8906    4.6883e-16
3970.6226    4.6144e-16
3973.3547    4.5766e-16
3976.0867    4.5113e-16
3978.8188    4.4580e-16
3981.5508    4.5971e-16
3984.2829    4.4542e-16
3987.0149    4.3054e-16
3989.7470    4.3501e-16
3992.4790    4.4976e-16
3995.2111    4.5129e-16
3997.9431    4.5078e-16
4000.6752    4.5651e-16
4003.4072    4.6072e-16
4006.1393    4.5192e-16
4008.8713    4.4954e-16
4011.6034    4.5295e-16
4014.3354    4.7041e-16
4017.0675    4.6775e-16
4019.7995    4.5030e-16
4022.5316    4.5893e-16
4025.2636    4.6501e-16
4027.9957    4.6068e-16
4030.7277    4.6907e-16
4033.4598    4.5671e-16
4036.1918    4.6140e-16
4038.9239    4.5610e-16
4041.6560    4.5862e-16
4044.3880    4.7572e-16
4047.1201    4.7097e-16
4049.8521    4.6384e-16
4052.5842    4.5766e-16
4055.3162    4.5711e-16
4058.0483    4.7080e-16
4060.7803    4.6469e-16
4063.5124    4.6243e-16
4066.2444    4.6827e-16
4068.9765    4.7184e-16
4071.7085    4.6297e-16
4074.4406    4.5910e-16
4077.1726    4.5377e-16
4079.9047    4.6635e-16
4082.6367    4.6558e-16
4085.3688    4.6069e-16
4088.1008    4.6149e-16
4090.8329    4.6068e-16
4093.5649    4.5815e-16
4096.2970    4.5621e-16
4099.0290    4.6323e-16
4101.7611    4.6366e-16
4104.4931    4.6765e-16
4107.2252    4.7420e-16
4109.9572    4.8022e-16
4112.6893    4.8421e-16
4115.4213    4.7627e-16
4118.1534    4.7073e-16
4120.8854    4.6761e-16
4123.6175    4.7185e-16
4126.3496    4.7189e-16
4129.0816    4.6669e-16
4131.8137    4.6276e-16
4134.5457    4.5915e-16
4137.2778    4.6629e-16
4140.0098    4.7499e-16
4142.7419    4.7256e-16
4145.4739    4.7729e-16
4148.2060    4.7624e-16
4150.9380    4.8075e-16
4153.6701    4.8645e-16
4156.4021    4.9188e-16
4159.1342    5.0277e-16
4161.8662    4.8458e-16
4164.5983    4.7090e-16
4167.3303    4.6367e-16
4170.0624    4.6427e-16
4172.7944    4.6173e-16
4175.5265    4.6048e-16
4178.2585    4.5893e-16
4180.9906    4.4415e-16
4183.7226    4.4394e-16
4186.4547    4.4342e-16
4189.1867    4.3845e-16
4191.9188    4.2747e-16
4194.6508    4.2082e-16
4197.3829    4.1451e-16
4200.1149    4.2114e-16
4202.8470    4.2250e-16
4205.5790    4.1456e-16
4208.3111    4.1227e-16
4211.0432    4.1501e-16
4213.7752    4.0849e-16
4216.5073    4.1285e-16
4219.2393    4.0311e-16
4221.9714    4.0469e-16
4224.7034    3.9719e-16
4227.4355    3.8528e-16
4230.1675    3.9575e-16
4232.8996    3.9504e-16
4235.6316    3.9425e-16
4238.3637    4.0335e-16
4241.0957    4.0448e-16
4243.8278    3.9290e-16
4246.5598    3.8365e-16
4249.2919    3.9562e-16
4252.0239    4.0072e-16
4254.7560    3.9765e-16
4257.4880    4.0012e-16
4260.2201    3.8771e-16
4262.9521    3.8552e-16
4265.6842    3.8895e-16
4268.4162    3.8623e-16
4271.1483    3.8846e-16
4273.8803    3.9082e-16
4276.6124    3.8644e-16
4279.3444    3.8203e-16
4282.0765    3.7723e-16
4284.8085    3.7655e-16
4287.5406    3.8264e-16
4290.2726    3.8683e-16
4293.0047    3.7755e-16
4295.7368    3.8051e-16
4298.4688    3.7840e-16
4301.2009    3.7489e-16
4303.9329    3.8151e-16
4306.6650    3.8599e-16
4309.3970    3.8710e-16
4312.1291    3.7993e-16
4314.8611    3.8815e-16
4317.5932    3.8515e-16
4320.3252    3.7208e-16
4323.0573    3.7603e-16
4325.7893    3.6980e-16
4328.5214    3.7546e-16
4331.2534    3.7153e-16
4333.9855    3.7179e-16
4336.7175    3.6822e-16
4339.4496    3.6940e-16
4342.1816    3.7949e-16
4344.9137    3.7706e-16
4347.6457    3.7338e-16
4350.3778    3.6583e-16
4353.1098    3.6830e-16
4355.8419    3.6458e-16
4358.5739    3.5995e-16
4361.3060    3.6327e-16
4364.0380    3.7081e-16
4366.7701    3.7528e-16
4369.5021    3.7723e-16
4372.2342    3.7316e-16
4374.9662    3.7723e-16
4377.6983    3.8865e-16
4380.4303    3.9435e-16
4383.1624    3.9342e-16
4385.8945    3.9497e-16
4388.6265    3.9565e-16
4391.3586    3.9979e-16
4394.0906    4.0514e-16
4396.8227    4.2218e-16
4399.5547    4.4442e-16
4402.2868    4.5385e-16
4405.0188    4.3139e-16
4407.7509    4.1555e-16
4410.4829    3.9640e-16
4413.2150    3.9909e-16
4415.9470    3.9979e-16
4418.6791    3.9052e-16
4421.4111    3.9411e-16
4424.1432    3.8109e-16
4426.8752    3.8434e-16
4429.6073    3.8647e-16
4432.3393    3.8479e-16
4435.0714    3.7620e-16
4437.8034    3.6868e-16
4440.5355    3.6148e-16
4443.2675    3.6365e-16
4445.9996    3.6712e-16
4448.7316    3.6340e-16
4451.4637    3.5690e-16
4454.1957    3.6049e-16
4456.9278    3.6316e-16
4459.6598    3.5989e-16
4462.3919    3.5802e-16
4465.1239    3.5521e-16
4467.8560    3.5387e-16
4470.5881    3.4636e-16
4473.3201    3.4418e-16
4476.0522    3.4494e-16
4478.7842    3.4762e-16
4481.5163    3.5179e-16
4484.2483    3.4545e-16
4486.9804    3.4198e-16
4489.7124    3.4373e-16
4492.4445    3.4354e-16
4495.1765    3.4513e-16
4497.9086    3.4254e-16
4500.6406    3.4269e-16
4503.3727    3.4244e-16
4506.1047    3.4571e-16
4508.8368    3.5094e-16
4511.5688    3.5051e-16
4514.3009    3.4763e-16
4517.0329    3.4559e-16
4519.7650    3.5563e-16
4522.4970    3.4832e-16
4525.2291    3.5228e-16
4527.9611    3.5935e-16
4530.6932    3.5306e-16
4533.4252    3.5626e-16
4536.1573    3.5668e-16
4538.8893    3.5697e-16
4541.6214    3.5388e-16
4544.3534    3.5683e-16
4547.0855    3.4772e-16
4549.8175    3.6044e-16
4552.5496    3.5878e-16
4555.2817    3.5319e-16
4558.0137    3.6099e-16
4560.7458    3.5114e-16
4563.4778    3.4890e-16
4566.2099    3.5747e-16
4568.9419    3.5840e-16
4571.6740    3.5550e-16
4574.4060    3.5437e-16
4577.1381    3.5373e-16
4579.8701    3.5807e-16
4582.6022    3.5332e-16
4585.3342    3.5294e-16
4588.0663    3.5498e-16
4590.7983    3.5355e-16
4593.5304    3.5428e-16
4596.2624    3.5249e-16
4598.9945    3.5537e-16
4601.7265    3.5611e-16
4604.4586    3.4954e-16
4607.1906    3.5155e-16
4609.9227    3.5634e-16
4612.6547    3.5514e-16
4615.3868    3.4680e-16
4618.1188    3.5401e-16
4620.8509    3.5658e-16
4623.5829    3.5849e-16
4626.3150    3.5247e-16
4629.0470    3.5168e-16
4631.7791    3.4993e-16
4634.5111    3.4925e-16
4637.2432    3.4994e-16
4639.9753    3.6158e-16
4642.7073    3.4842e-16
4645.4394    3.4817e-16
4648.1714    3.5138e-16
4650.9035    3.5555e-16
4653.6355    3.5468e-16
4656.3676    3.5903e-16
4659.0996    3.5865e-16
4661.8317    3.5462e-16
4664.5637    3.5266e-16
4667.2958    3.5568e-16
4670.0278    3.6576e-16
4672.7599    3.7824e-16
4675.4919    3.7252e-16
4678.2240    3.8050e-16
4680.9560    3.8320e-16
4683.6881    3.9512e-16
4686.4201    3.9375e-16
4689.1522    3.9530e-16
4691.8842    3.9913e-16
4694.6163    4.1601e-16
4697.3483    4.2602e-16
4700.0804    4.4738e-16
4702.8124    4.6088e-16
4705.5445    4.7007e-16
4708.2765    4.8986e-16
4711.0086    4.8046e-16
4713.7406    4.7531e-16
4716.4727    4.6921e-16
4719.2047    4.5886e-16
4721.9368    4.4225e-16
4724.6689    4.3532e-16
4727.4009    4.3345e-16
4730.1330    4.2550e-16
4732.8650    4.2877e-16
4735.5971    4.3861e-16
4738.3291    4.3736e-16
4741.0612    4.3926e-16
4743.7932    4.4768e-16
4746.5253    4.5806e-16
4749.2573    4.7127e-16
4751.9894    4.9026e-16
4754.7214    4.9979e-16
4757.4535    4.7102e-16
4760.1855    4.2986e-16
4762.9176    4.1132e-16
4765.6496    4.0644e-16
4768.3817    3.9996e-16
4771.1137    3.8767e-16
4773.8458    3.6926e-16
4776.5778    3.7125e-16
4779.3099    3.6918e-16
4782.0419    3.6552e-16
4784.7740    3.6541e-16
4787.5060    3.5617e-16
4790.2381    3.4774e-16
4792.9701    3.4510e-16
4795.7022    3.3677e-16
4798.4342    3.3448e-16
4801.1663    3.3487e-16
4803.8983    3.2738e-16
4806.6304    3.3199e-16
4809.3625    3.2847e-16
4812.0945    3.2266e-16
4814.8266    3.2621e-16
4817.5586    3.2467e-16
4820.2907    3.3048e-16
4823.0227    3.1944e-16
4825.7548    3.2148e-16
4828.4868    3.2147e-16
4831.2189    3.2206e-16
4833.9509    3.1774e-16
4836.6830    3.1317e-16
4839.4150    3.1114e-16
4842.1471    3.1318e-16
4844.8791    3.1486e-16
4847.6112    3.0886e-16
4850.3432    3.0375e-16
4853.0753    3.1285e-16
4855.8073    3.0828e-16
4858.5394    3.0092e-16
4861.2714    3.0442e-16
4864.0035    3.0678e-16
4866.7355    3.1147e-16
4869.4676    3.0660e-16
4872.1996    2.9936e-16
4874.9317    3.0255e-16
4877.6637    3.1020e-16
4880.3958    3.0141e-16
4883.1278    3.0256e-16
4885.8599    3.0186e-16
4888.5919    3.0395e-16
4891.3240    3.0916e-16
4894.0561    3.1387e-16
4896.7881    3.1225e-16
4899.5202    3.1298e-16
4902.2522    3.1737e-16
4904.9843    3.1995e-16
4907.7163    3.2078e-16
4910.4484    3.2443e-16
4913.1804    3.2647e-16
4915.9125    3.3098e-16
4918.6445    3.3555e-16
4921.3766    3.3762e-16
4924.1086    3.5378e-16
4926.8407    3.8353e-16
4929.5727    4.1801e-16
4932.3048    4.3676e-16
4935.0368    4.1411e-16
4937.7689    3.7104e-16
4940.5009    3.4340e-16
4943.2330    3.3056e-16
4945.9650    3.2502e-16
4948.6971    3.2060e-16
4951.4291    3.1395e-16
4954.1612    3.1344e-16
4956.8932    3.0459e-16
4959.6253    2.8692e-16
4962.3573    2.8778e-16
4965.0894    2.8262e-16
4967.8214    2.8730e-16
4970.5535    2.9529e-16
4973.2855    2.8673e-16
4976.0176    2.8670e-16
4978.7496    2.8536e-16
4981.4817    2.8662e-16
4984.2138    2.8202e-16
4986.9458    2.7923e-16
4989.6779    2.7904e-16
4992.4099    2.7555e-16
4995.1420    2.7503e-16
4997.8740    2.7333e-16
5000.6061    2.6916e-16
5003.3381    2.7629e-16
5006.0702    2.7339e-16
5008.8022    2.6576e-16
5011.5343    2.5976e-16
5014.2663    2.5960e-16
5016.9984    2.6699e-16
5019.7304    2.5995e-16
5022.4625    2.6041e-16
5025.1945    2.6898e-16
5027.9266    2.5996e-16
5030.6586    2.5101e-16
5033.3907    2.5267e-16
5036.1227    2.5871e-16
5038.8548    2.5713e-16
5041.5868    2.5399e-16
5044.3189    2.4972e-16
5047.0509    2.5076e-16
5049.7830    2.5619e-16
5052.5150    2.5739e-16
5055.2471    2.4926e-16
5057.9791    2.4478e-16
5060.7112    2.4450e-16
5063.4432    2.4274e-16
5066.1753    2.5076e-16
5068.9074    2.5775e-16
5071.6394    2.5876e-16
5074.3715    2.5150e-16
5077.1035    2.4970e-16
5079.8356    2.4370e-16
5082.5676    2.4644e-16
5085.2997    2.5232e-16
5088.0317    2.4393e-16
5090.7638    2.4225e-16
5093.4958    2.4471e-16
5096.2279    2.5100e-16
5098.9599    2.5147e-16
5101.6920    2.5092e-16
5104.4240    2.4641e-16
5107.1561    2.4470e-16
5109.8881    2.4289e-16
5112.6202    2.3422e-16
5115.3522    2.3599e-16
5118.0843    2.4791e-16
5120.8163    2.4389e-16
5123.5484    2.3483e-16
5126.2804    2.4387e-16
5129.0125    2.3814e-16
5131.7445    2.3973e-16
5134.4766    2.4172e-16
5137.2086    2.4189e-16
5139.9407    2.4423e-16
5142.6727    2.4115e-16
5145.4048    2.4460e-16
5148.1368    2.4086e-16
5150.8689    2.4639e-16
5153.6010    2.4521e-16
5156.3330    2.4066e-16
5159.0651    2.3874e-16
5161.7971    2.4340e-16
5164.5292    2.4065e-16
5167.2612    2.3853e-16
5169.9933    2.3691e-16
5172.7253    2.3771e-16
5175.4574    2.3737e-16
5178.1894    2.2958e-16
5180.9215    2.3007e-16
5183.6535    2.2838e-16
5186.3856    2.2742e-16
5189.1176    2.3789e-16
5191.8497    2.4374e-16
5194.5817    2.3620e-16
5197.3138    2.2269e-16
5200.0458    2.2480e-16
5202.7779    2.2901e-16
5205.5099    2.2560e-16
5208.2420    2.3380e-16
5210.9740    2.2469e-16
5213.7061    2.3097e-16
5216.4381    2.3648e-16
5219.1702    2.2872e-16
5221.9022    2.2838e-16
5224.6343    2.3694e-16
5227.3663    2.2982e-16
5230.0984    2.2116e-16
5232.8304    2.1908e-16
5235.5625    2.2238e-16
5238.2946    2.2652e-16
5241.0266    2.2665e-16
5243.7587    2.1998e-16
5246.4907    2.2906e-16
5249.2228    2.2792e-16
5251.9548    2.2054e-16
5254.6869    2.2613e-16
5257.4189    2.2279e-16
5260.1510    2.2297e-16
5262.8830    2.2632e-16
5265.6151    2.2731e-16
5268.3471    2.2745e-16
5271.0792    2.2215e-16
5273.8112    2.1926e-16
5276.5433    2.2464e-16
5279.2753    2.3219e-16
5282.0074    2.2339e-16
5284.7394    2.2155e-16
5287.4715    2.2491e-16
5290.2035    2.2558e-16
5292.9356    2.2910e-16
5295.6676    2.2357e-16
5298.3997    2.2259e-16
5301.1317    2.3139e-16
5303.8638    2.1991e-16
5306.5958    2.1398e-16
5309.3279    2.1681e-16
5312.0599    2.1604e-16
5314.7920    2.1641e-16
5317.5240    2.1997e-16
5320.2561    2.1890e-16
5322.9882    2.1605e-16
5325.7202    2.1443e-16
5328.4523    2.2117e-16
5331.1843    2.2515e-16
5333.9164    2.2018e-16
5336.6484    2.0855e-16
5339.3805    2.1277e-16
5342.1125    2.1550e-16
5344.8446    2.1548e-16
5347.5766    2.1657e-16
5350.3087    2.1891e-16
5353.0407    2.1884e-16
5355.7728    2.1658e-16
5358.5048    2.1879e-16
5361.2369    2.1897e-16
5363.9689    2.1780e-16
5366.7010    2.1395e-16
5369.4330    2.1163e-16
5372.1651    2.1927e-16
5374.8971    2.1390e-16
5377.6292    2.1138e-16
5380.3612    2.1555e-16
5383.0933    2.1362e-16
5385.8253    2.1165e-16
5388.5574    2.1266e-16
5391.2894    2.1941e-16
5394.0215    2.2203e-16
5396.7535    2.1787e-16
5399.4856    2.1356e-16
5402.2176    2.1531e-16
5404.9497    2.0862e-16
5407.6818    2.0694e-16
5410.4138    2.1220e-16
5413.1459    2.1496e-16
5415.8779    2.1808e-16
5418.6100    2.1765e-16
5421.3420    2.1832e-16
5424.0741    2.1764e-16
5426.8061    2.1435e-16
5429.5382    2.1933e-16
5432.2702    2.1676e-16
5435.0023    2.1802e-16
5437.7343    2.1794e-16
5440.4664    2.0696e-16
5443.1984    2.0698e-16
5445.9305    2.1085e-16
5448.6625    2.1585e-16
5451.3946    2.1497e-16
5454.1266    2.1682e-16
5456.8587    2.1602e-16
5459.5907    2.1694e-16
5462.3228    2.1743e-16
5465.0548    2.1446e-16
5467.7869    2.1850e-16
5470.5189    2.2154e-16
5473.2510    2.2157e-16
5475.9830    2.1463e-16
5478.7151    2.1121e-16
5481.4471    2.2365e-16
5484.1792    2.2431e-16
5486.9112    2.1937e-16
5489.6433    2.1997e-16
5492.3754    2.2284e-16
5495.1074    2.2115e-16
5497.8395    2.1629e-16
5500.5715    2.1560e-16
5503.3036    2.0182e-16
5506.0356    2.0456e-16
5508.7677    2.0731e-16
5511.4997    2.1126e-16
5514.2318    2.1040e-16
5516.9638    2.1283e-16
5519.6959    2.0605e-16
5522.4279    1.9940e-16
5525.1600    2.0065e-16
5527.8920    2.0035e-16
5530.6241    2.0451e-16
5533.3561    2.0665e-16
5536.0882    2.0216e-16
5538.8202    1.9895e-16
5541.5523    1.9471e-16
5544.2843    1.9586e-16
5547.0164    2.0308e-16
5549.7484    2.0227e-16
5552.4805    2.0141e-16
5555.2125    2.0623e-16
5557.9446    2.0589e-16
5560.6766    2.0572e-16
5563.4087    2.1064e-16
5566.1407    1.9686e-16
5568.8728    1.8988e-16
5571.6048    1.8965e-16
5574.3369    1.9935e-16
5577.0690    1.9775e-16
5579.8010    1.9849e-16
5582.5331    1.9713e-16
5585.2651    1.9976e-16
5587.9972    2.0060e-16
5590.7292    2.0170e-16
5593.4613    2.0676e-16
5596.1933    2.0211e-16
5598.9254    2.0737e-16
5601.6574    2.0037e-16
5604.3895    2.0218e-16
5607.1215    2.0459e-16
5609.8536    2.0065e-16
5612.5856    1.9384e-16
5615.3177    1.9349e-16
5618.0497    1.9317e-16
5620.7818    1.9724e-16
5623.5138    2.0056e-16
5626.2459    2.0374e-16
5628.9779    1.9887e-16
5631.7100    2.0237e-16
5634.4420    1.9239e-16
5637.1741    1.9557e-16
5639.9061    1.9712e-16
5642.6382    1.9516e-16
5645.3702    1.9035e-16
5648.1023    1.9684e-16
5650.8343    1.9864e-16
5653.5664    1.9669e-16
5656.2984    1.9010e-16
5659.0305    1.9343e-16
5661.7625    2.0161e-16
5664.4946    1.9087e-16
5667.2267    1.8660e-16
5669.9587    1.9592e-16
5672.6908    1.9440e-16
5675.4228    1.8979e-16
5678.1549    1.9140e-16
5680.8869    1.8636e-16
5683.6190    1.8369e-16
5686.3510    1.8755e-16
5689.0831    1.9561e-16
5691.8151    1.9098e-16
5694.5472    1.9005e-16
5697.2792    1.9073e-16
5700.0113    1.8965e-16
5702.7433    1.9665e-16
5705.4754    1.9667e-16
5708.2074    1.9128e-16
5710.9395    1.8716e-16
5713.6715    1.8715e-16
5716.4036    1.8626e-16
5719.1356    1.8974e-16
5721.8677    1.9345e-16
5724.5997    1.9240e-16
5727.3318    1.9587e-16
5730.0638    1.9015e-16
5732.7959    1.8175e-16
5735.5279    1.9162e-16
5738.2600    1.9416e-16
5740.9920    1.9259e-16
5743.7241    1.9316e-16
5746.4561    1.9354e-16
5749.1882    1.9372e-16
5751.9203    1.8879e-16
5754.6523    1.8693e-16
5757.3844    1.8956e-16
5760.1164    1.9053e-16
5762.8485    1.8566e-16
5765.5805    1.8353e-16
5768.3126    1.8335e-16
5771.0446    1.7995e-16
5773.7767    1.9221e-16
5776.5087    1.9274e-16
5779.2408    1.9294e-16
5781.9728    1.9211e-16
5784.7049    1.9253e-16
5787.4369    1.9055e-16
5790.1690    1.8699e-16
5792.9010    1.8753e-16
5795.6331    1.9272e-16
5798.3651    1.8847e-16
5801.0972    1.8580e-16
5803.8292    1.8308e-16
5806.5613    1.8486e-16
5809.2933    1.8296e-16
5812.0254    1.8660e-16
5814.7574    1.8382e-16
5817.4895    1.8816e-16
5820.2215    1.8837e-16
5822.9536    1.8517e-16
5825.6856    1.8994e-16
5828.4177    1.8331e-16
5831.1497    1.8463e-16
5833.8818    1.8261e-16
5836.6139    1.8203e-16
5839.3459    1.9203e-16
5842.0780    1.9647e-16
5844.8100    1.9166e-16
5847.5421    1.8829e-16
5850.2741    1.8571e-16
5853.0062    1.9179e-16
5855.7382    1.8843e-16
5858.4703    1.8323e-16
5861.2023    1.8909e-16
5863.9344    1.9235e-16
5866.6664    1.8684e-16
5869.3985    1.8950e-16
5872.1305    1.9146e-16
5874.8626    1.9537e-16
5877.5946    2.0063e-16
5880.3267    1.9893e-16
5883.0587    2.1021e-16
5885.7908    2.1163e-16
5888.5228    2.0068e-16
5891.2549    1.9761e-16
5893.9869    1.9962e-16
5896.7190    1.9883e-16
5899.4510    1.9512e-16
5902.1831    1.9524e-16
5904.9151    1.9242e-16
5907.6472    1.8915e-16
5910.3792    1.9788e-16
5913.1113    1.9717e-16
5915.8433    1.8500e-16
5918.5754    1.8603e-16
5921.3075    1.8544e-16
5924.0395    1.8326e-16
5926.7716    1.7914e-16
5929.5036    1.7535e-16
5932.2357    1.7778e-16
5934.9677    1.7562e-16
5937.6998    1.7381e-16
5940.4318    1.6923e-16
5943.1639    1.7185e-16
5945.8959    1.7450e-16
5948.6280    1.7137e-16
5951.3600    1.7411e-16
5954.0921    1.7711e-16
5956.8241    1.7711e-16
5959.5562    1.8065e-16
5962.2882    1.8646e-16
5965.0203    1.7232e-16
5967.7523    1.6693e-16
5970.4844    1.7375e-16
5973.2164    1.6875e-16
5975.9485    1.6966e-16
5978.6805    1.6412e-16
5981.4126    1.5568e-16
5984.1446    1.6760e-16
5986.8767    1.6471e-16
5989.6087    1.6516e-16
5992.3408    1.6022e-16
5995.0728    1.6984e-16
5997.8049    1.7100e-16
6000.5369    1.7516e-16
6003.2690    1.7184e-16
6006.0011    1.7095e-16
6008.7331    1.6159e-16
6011.4652    1.5584e-16
6014.1972    1.5626e-16
6016.9293    1.5952e-16
6019.6613    1.6682e-16
6022.3934    1.7046e-16
6025.1254    1.6923e-16
6027.8575    1.6599e-16
6030.5895    1.6382e-16
6033.3216    1.6280e-16
6036.0536    1.5986e-16
6038.7857    1.5907e-16
6041.5177    1.5825e-16
6044.2498    1.6183e-16
6046.9818    1.6013e-16
6049.7139    1.6229e-16
6052.4459    1.6388e-16
6055.1780    1.6297e-16
6057.9100    1.5753e-16
6060.6421    1.5674e-16
6063.3741    1.6102e-16
6066.1062    1.5999e-16
6068.8382    1.5678e-16
6071.5703    1.5412e-16
6074.3023    1.5313e-16
6077.0344    1.5453e-16
6079.7664    1.5223e-16
6082.4985    1.5290e-16
6085.2305    1.5647e-16
6087.9626    1.6201e-16
6090.6947    1.5853e-16
6093.4267    1.4490e-16
6096.1588    1.5098e-16
6098.8908    1.6020e-16
6101.6229    1.5043e-16
6104.3549    1.4894e-16
6107.0870    1.5464e-16
6109.8190    1.6175e-16
6112.5511    1.6437e-16
6115.2831    1.5847e-16
6118.0152    1.5237e-16
6120.7472    1.4813e-16
6123.4793    1.5648e-16
6126.2113    1.5560e-16
6128.9434    1.5608e-16
6131.6754    1.5749e-16
6134.4075    1.6043e-16
6137.1395    1.5321e-16
6139.8716    1.5696e-16
6142.6036    1.5756e-16
6145.3357    1.5279e-16
6148.0677    1.5155e-16
6150.7998    1.4874e-16
6153.5318    1.4953e-16
6156.2639    1.4382e-16
6158.9959    1.4605e-16
6161.7280    1.6014e-16
6164.4600    1.5085e-16
6167.1921    1.4803e-16
6169.9241    1.4615e-16
6172.6562    1.4476e-16
6175.3883    1.5112e-16
6178.1203    1.5545e-16
6180.8524    1.5163e-16
6183.5844    1.5125e-16
6186.3165    1.4338e-16
6189.0485    1.4423e-16
6191.7806    1.5375e-16
6194.5126    1.5023e-16
6197.2447    1.4810e-16
6199.9767    1.5404e-16
6202.7088    1.5021e-16
6205.4408    1.4626e-16
6208.1729    1.4845e-16
6210.9049    1.4194e-16
6213.6370    1.4014e-16
6216.3690    1.5123e-16
6219.1011    1.5128e-16
6221.8331    1.4352e-16
6224.5652    1.4484e-16
6227.2972    1.4716e-16
6230.0293    1.4282e-16
6232.7613    1.4067e-16
6235.4934    1.4348e-16
6238.2254    1.4702e-16
6240.9575    1.4440e-16
6243.6895    1.4054e-16
6246.4216    1.4835e-16
6249.1536    1.4637e-16
6251.8857    1.5289e-16
6254.6177    1.4634e-16
6257.3498    1.4380e-16
6260.0819    1.4156e-16
6262.8139    1.3807e-16
6265.5460    1.4629e-16
6268.2780    1.4039e-16
6271.0101    1.3994e-16
6273.7421    1.3164e-16
6276.4742    1.3367e-16
6279.2062    1.4257e-16
6281.9383    1.4122e-16
6284.6703    1.4144e-16
6287.4024    1.3531e-16
6290.1344    1.3704e-16
6292.8665    1.5418e-16
6295.5985    1.5300e-16
6298.3306    1.4475e-16
6301.0626    1.4153e-16
6303.7947    1.4145e-16
6306.5267    1.3617e-16
6309.2588    1.3996e-16
6311.9908    1.5029e-16
6314.7229    1.4190e-16
6317.4549    1.3812e-16
6320.1870    1.4129e-16
6322.9190    1.3769e-16
6325.6511    1.3805e-16
6328.3831    1.4064e-16
6331.1152    1.3641e-16
6333.8472    1.2993e-16
6336.5793    1.3346e-16
6339.3113    1.3174e-16
6342.0434    1.3244e-16
6344.7755    1.3286e-16
6347.5075    1.3319e-16
6350.2396    1.4219e-16
6352.9716    1.4220e-16
6355.7037    1.3949e-16
6358.4357    1.3757e-16
6361.1678    1.3456e-16
6363.8998    1.3146e-16
6366.6319    1.3044e-16
6369.3639    1.3589e-16
6372.0960    1.3998e-16
6374.8280    1.3932e-16
6377.5601    1.2988e-16
6380.2921    1.3178e-16
6383.0242    1.3682e-16
6385.7562    1.3645e-16
6388.4883    1.3326e-16
6391.2203    1.3363e-16
6393.9524    1.3663e-16
6396.6844    1.3861e-16
6399.4165    1.3101e-16
6402.1485    1.3906e-16
6404.8806    1.3719e-16
6407.6126    1.3104e-16
6410.3447    1.2905e-16
6413.0767    1.2797e-16
6415.8088    1.3380e-16
6418.5408    1.3991e-16
6421.2729    1.3842e-16
6424.0049    1.3374e-16
6426.7370    1.3444e-16
6429.4690    1.3429e-16
6432.2011    1.3160e-16
6434.9332    1.2821e-16
6437.6652    1.2755e-16
6440.3973    1.3407e-16
6443.1293    1.3396e-16
6445.8614    1.3213e-16
6448.5934    1.3253e-16
6451.3255    1.3155e-16
6454.0575    1.3363e-16
6456.7896    1.3101e-16
6459.5216    1.2877e-16
6462.2537    1.2742e-16
6464.9857    1.3125e-16
6467.7178    1.3123e-16
6470.4498    1.2981e-16
6473.1819    1.3122e-16
6475.9139    1.3109e-16
6478.6460    1.3213e-16
6481.3780    1.2635e-16
6484.1101    1.2725e-16
6486.8421    1.3261e-16
6489.5742    1.2570e-16
6492.3062    1.2414e-16
6495.0383    1.2815e-16
6497.7703    1.3472e-16
6500.5024    1.3141e-16
6503.2344    1.3231e-16
6505.9665    1.3338e-16
6508.6985    1.3284e-16
6511.4306    1.3603e-16
6514.1626    1.3544e-16
6516.8947    1.3201e-16
6519.6268    1.3388e-16
6522.3588    1.3021e-16
6525.0909    1.3206e-16
6527.8229    1.3218e-16
6530.5550    1.3060e-16
6533.2870    1.3395e-16
6536.0191    1.3250e-16
6538.7511    1.3043e-16
6541.4832    1.2904e-16
6544.2152    1.2920e-16
6546.9473    1.3183e-16
6549.6793    1.3342e-16
6552.4114    1.3331e-16
6555.1434    1.3710e-16
6557.8755    1.3378e-16
6560.6075    1.3452e-16
6563.3396    1.3369e-16
6566.0716    1.3870e-16
6568.8037    1.3673e-16
6571.5357    1.3264e-16
6574.2678    1.3300e-16
6576.9998    1.3558e-16
6579.7319    1.4782e-16
6582.4639    1.3570e-16
6585.1960    1.3085e-16
6587.9280    1.3383e-16
6590.6601    1.3507e-16
6593.3921    1.3617e-16
6596.1242    1.3650e-16
6598.8562    1.3812e-16
6601.5883    1.3326e-16
6604.3204    1.3854e-16
6607.0524    1.4344e-16
6609.7845    1.4311e-16
6612.5165    1.4245e-16
6615.2486    1.4264e-16
6617.9806    1.4344e-16
6620.7127    1.4139e-16
6623.4447    1.4693e-16
6626.1768    1.4966e-16
6628.9088    1.5507e-16
6631.6409    1.5921e-16
6634.3729    1.5184e-16
6637.1050    1.5451e-16
6639.8370    1.5585e-16
6642.5691    1.6498e-16
6645.3011    1.7035e-16
6648.0332    1.7965e-16
6650.7652    1.7455e-16
6653.4973    1.7615e-16
6656.2293    1.9682e-16
6658.9614    2.2085e-16
6661.6934    2.4594e-16
6664.4255    2.7275e-16
6667.1575    2.6545e-16
6669.8896    2.3565e-16
6672.6216    2.0004e-16
6675.3537    1.8333e-16
6678.0857    1.8073e-16
6680.8178    1.7217e-16
6683.5498    1.7426e-16
6686.2819    1.6883e-16
6689.0140    1.6275e-16
6691.7460    1.5705e-16
6694.4781    1.5068e-16
6697.2101    1.4785e-16
6699.9422    1.4572e-16
6702.6742    1.4426e-16
6705.4063    1.4776e-16
6708.1383    1.4102e-16
6710.8704    1.3547e-16
6713.6024    1.3802e-16
6716.3345    1.3901e-16
6719.0665    1.3744e-16
6721.7986    1.3272e-16
6724.5306    1.3061e-16
6727.2627    1.2587e-16
6729.9947    1.2789e-16
6732.7268    1.3165e-16
6735.4588    1.3057e-16
6738.1909    1.2817e-16
6740.9229    1.2891e-16
6743.6550    1.3110e-16
6746.3870    1.3211e-16
6749.1191    1.3229e-16
6751.8511    1.3221e-16
6754.5832    1.2467e-16
6757.3152    1.3467e-16
6760.0473    1.3157e-16
6762.7793    1.2546e-16
6765.5114    1.2246e-16
6768.2434    1.2336e-16
6770.9755    1.2333e-16
6773.7076    1.2738e-16
6776.4396    1.2750e-16
6779.1717    1.2662e-16
6781.9037    1.3217e-16
6784.6358    1.3056e-16
6787.3678    1.2454e-16
6790.0999    1.1974e-16
6792.8319    1.1862e-16
6795.5640    1.1350e-16
6798.2960    1.1739e-16
6801.0281    1.2566e-16
6803.7601    1.2242e-16
6806.4922    1.1638e-16
6809.2242    1.1119e-16
6811.9563    1.1526e-16
6814.6883    1.1749e-16
6817.4204    1.1992e-16
6820.1524    1.2324e-16
6822.8845    1.1805e-16
6825.6165    1.1857e-16
6828.3486    1.2267e-16
6831.0806    1.2349e-16
6833.8127    1.2035e-16
6836.5447    1.2475e-16
6839.2768    1.2791e-16
6842.0088    1.2222e-16
6844.7409    1.2010e-16
6847.4729    1.2032e-16
6850.2050    1.2852e-16
6852.9370    1.2066e-16
6855.6691    1.2068e-16
6858.4012    1.1269e-16
6861.1332    1.0352e-16
6863.8653    9.8541e-17
6866.5973    1.0030e-16
6869.3294    1.0663e-16
6872.0614    1.1033e-16
6874.7935    1.1014e-16
6877.5255    1.1107e-16
6880.2576    1.0342e-16
6882.9896    1.0162e-16
6885.7217    1.1006e-16
6888.4537    1.0954e-16
6891.1858    1.0318e-16
6893.9178    1.0034e-16
6896.6499    1.0545e-16
6899.3819    1.0941e-16
6902.1140    1.1357e-16
6904.8460    1.1713e-16
6907.5781    1.1131e-16
6910.3101    1.0291e-16
6913.0422    1.0987e-16
6915.7742    1.0708e-16
6918.5063    1.0784e-16
6921.2383    1.1459e-16
6923.9704    1.1570e-16
6926.7024    1.1338e-16
6929.4345    1.0592e-16
6932.1665    1.0486e-16
6934.8986    1.0590e-16
6937.6306    1.0978e-16
6940.3627    1.1487e-16
6943.0948    1.0624e-16
6945.8268    1.0097e-16
6948.5589    1.0048e-16
6951.2909    1.0532e-16
6954.0230    1.0604e-16
6956.7550    1.0305e-16
6959.4871    1.0958e-16
6962.2191    1.0815e-16
6964.9512    1.0596e-16
6967.6832    1.1198e-16
6970.4153    1.0806e-16
6973.1473    1.0698e-16
6975.8794    1.0651e-16
6978.6114    1.0263e-16
6981.3435    1.0746e-16
6984.0755    1.0848e-16
6986.8076    1.0691e-16
6989.5396    1.0418e-16
6992.2717    1.0311e-16
6995.0037    1.0579e-16
6997.7358    1.0129e-16
7000.4678    1.0995e-16
7003.1999    1.0523e-16
7005.9319    1.0736e-16
7008.6640    1.0619e-16
7011.3960    1.0532e-16
7014.1281    1.1237e-16
7016.8601    1.0918e-16
7019.5922    1.0434e-16
7022.3242    1.0290e-16
7025.0563    1.0318e-16
7027.7884    1.0411e-16
7030.5204    1.0761e-16
7033.2525    1.0818e-16
7035.9845    1.0246e-16
7038.7166    1.0293e-16
7041.4486    1.0409e-16
7044.1807    1.0160e-16
7046.9127    1.0213e-16
7049.6448    1.0052e-16
7052.3768    1.0389e-16
7055.1089    1.0263e-16
7057.8409    1.0130e-16
7060.5730    1.0468e-16
7063.3050    1.0264e-16
7066.0371    1.0046e-16
7068.7691    1.0851e-16
7071.5012    1.0135e-16
7074.2332    9.7207e-17
7076.9653    9.9342e-17
7079.6973    1.0139e-16
7082.4294    9.7116e-17
7085.1614    9.4247e-17
7087.8935    1.0114e-16
7090.6255    1.0405e-16
7093.3576    1.1082e-16
7096.0896    1.0980e-16
7098.8217    1.0399e-16
7101.5537    1.0422e-16
7104.2858    1.0316e-16
7107.0178    1.0225e-16
7109.7499    1.0718e-16
7112.4819    1.0827e-16
7115.2140    1.0722e-16
7117.9461    1.0726e-16
7120.6781    1.0189e-16
7123.4102    1.0248e-16
7126.1422    1.0634e-16
7128.8743    1.0801e-16
7131.6063    1.0959e-16
7134.3384    1.0776e-16
7137.0704    1.0457e-16
7139.8025    1.0459e-16
7142.5345    1.0581e-16
7145.2666    1.1095e-16
7147.9986    1.0743e-16
7150.7307    1.0629e-16
7153.4627    1.0917e-16
7156.1948    1.0164e-16
7158.9268    1.0701e-16
7161.6589    1.0425e-16
7164.3909    9.8257e-17
7167.1230    9.8870e-17
7169.8550    1.0627e-16
7172.5871    1.0904e-16
7175.3191    1.0854e-16
7178.0512    1.0399e-16
7180.7832    9.9687e-17
7183.5153    1.0198e-16
7186.2473    9.9641e-17
7188.9794    9.5910e-17
7191.7114    9.9886e-17
7194.4435    1.0071e-16
7197.1755    1.0040e-16
7199.9076    1.0150e-16
7202.6397    1.0515e-16
7205.3717    1.0809e-16
7208.1038    1.1410e-16
7210.8358    1.1375e-16
7213.5679    1.1989e-16
7216.2999    1.1911e-16
7219.0320    1.2404e-16
7221.7640    1.1472e-16
7224.4961    1.0560e-16
7227.2281    1.0586e-16
7229.9602    1.0572e-16
7232.6922    1.1082e-16
7235.4243    1.1308e-16
7238.1563    1.1390e-16
7240.8884    1.0294e-16
7243.6204    9.5528e-17
7246.3525    9.6812e-17
7249.0845    9.6853e-17
7251.8166    1.0423e-16
7254.5486    1.1140e-16
7257.2807    1.0675e-16
7260.0127    9.6568e-17
7262.7448    9.0077e-17
7265.4768    9.1621e-17
7268.2089    9.9541e-17
7270.9409    1.0206e-16
7273.6730    9.1080e-17
7276.4050    9.7325e-17
7279.1371    9.7374e-17
7281.8691    9.8594e-17
7284.6012    1.0292e-16
7287.3333    1.0133e-16
7290.0653    9.7567e-17
7292.7974    9.0227e-17
7295.5294    9.6837e-17
7298.2615    9.8884e-17
7300.9935    8.9411e-17
7303.7256    9.2016e-17
7306.4576    9.9729e-17
7309.1897    9.8526e-17
7311.9217    9.3503e-17
7314.6538    9.0477e-17
7317.3858    8.9819e-17
7320.1179    9.0347e-17
7322.8499    9.1975e-17
7325.5820    9.7337e-17
7328.3140    9.9138e-17
7331.0461    9.3607e-17
7333.7781    9.0792e-17
7336.5102    9.2071e-17
7339.2422    8.6940e-17
7341.9743    8.5704e-17
7344.7063    9.3054e-17
7347.4384    1.0079e-16
7350.1704    9.7050e-17
7352.9025    9.7458e-17
7355.6345    8.5291e-17
7358.3666    9.0855e-17
7361.0986    8.9722e-17
7363.8307    9.2625e-17
7366.5627    8.7741e-17
7369.2948    8.3116e-17
7372.0269    9.0345e-17
7374.7589    9.2117e-17
7377.4910    8.6195e-17
7380.2230    8.8430e-17
7382.9551    9.0921e-17
7385.6871    8.7402e-17
7388.4192    9.3830e-17
7391.1512    9.6599e-17
7393.8833    9.0729e-17
7396.6153    9.5916e-17
7399.3474    9.3099e-17
7402.0794    8.7711e-17
7404.8115    8.7468e-17
7407.5435    8.7966e-17
7410.2756    8.8307e-17
7413.0076    9.2077e-17
7415.7397    8.7934e-17
7418.4717    8.7217e-17
7421.2038    9.1247e-17
7423.9358    9.3520e-17
7426.6679    8.2997e-17
7429.3999    8.8255e-17
7432.1320    8.5210e-17
7434.8640    8.6820e-17
7437.5961    8.9620e-17
7440.3281    8.9586e-17
7443.0602    8.5408e-17
7445.7922    7.7491e-17
7448.5243    7.9336e-17
7451.2563    8.7688e-17
7453.9884    9.3532e-17
7456.7205    8.8650e-17
7459.4525    7.9543e-17
7462.1846    8.3669e-17
7464.9166    8.6230e-17
7467.6487    8.5580e-17
7470.3807    8.5933e-17
7473.1128    8.9763e-17
7475.8448    8.9347e-17
7478.5769    8.1439e-17
7481.3089    9.0764e-17
7484.0410    9.2160e-17
7486.7730    9.2983e-17
7489.5051    8.4840e-17
7492.2371    8.4124e-17
7494.9692    8.7271e-17
7497.7012    8.6400e-17
7500.4333    8.9221e-17
7503.1653    8.5265e-17
7505.8974    8.0879e-17
7508.6294    8.7235e-17
7511.3615    8.6734e-17
7514.0935    8.5119e-17
7516.8256    8.5503e-17
7519.5576    8.2724e-17
7522.2897    9.2535e-17
7525.0217    8.9697e-17
7527.7538    8.0625e-17
7530.4858    8.8265e-17
7533.2179    8.3814e-17
7535.9499    8.0326e-17
7538.6820    8.2481e-17
7541.4141    8.3641e-17
7544.1461    8.5709e-17
7546.8782    7.8854e-17
7549.6102    8.4934e-17
7552.3423    8.4636e-17
7555.0743    8.2435e-17
7557.8064    8.5777e-17
7560.5384    8.5300e-17
7563.2705    8.7715e-17
7566.0025    8.7001e-17
7568.7346    8.2797e-17
7571.4666    8.7406e-17
7574.1987    9.7169e-17
7576.9307    1.0058e-16
7579.6628    1.0255e-16
7582.3948    1.0918e-16
7585.1269    9.6219e-17
7587.8589    8.9649e-17
7590.5910    8.1691e-17
7593.3230    7.0654e-17
7596.0551    5.6695e-17
7598.7871    4.5496e-17
7601.5192    4.1738e-17
7604.2512    5.3930e-17
7606.9833    7.0049e-17
7609.7153    9.8341e-17
7612.4474    1.0401e-16
7615.1794    1.0675e-16
7617.9115    9.4048e-17
7620.6435    8.2051e-17
7623.3756    8.3218e-17
7626.1077    7.7556e-17
7628.8397    7.1069e-17
7631.5718    7.0508e-17
7634.3038    7.2863e-17
7637.0359    7.7129e-17
7639.7679    7.4235e-17
7642.5000    7.2366e-17
7645.2320    8.0878e-17
7647.9641    7.8538e-17
7650.6961    7.9682e-17
7653.4282    8.2649e-17
7656.1602    7.6624e-17
7658.8923    7.6129e-17
7661.6243    8.2909e-17
7664.3564    8.1039e-17
7667.0884    8.0249e-17
7669.8205    8.4487e-17
7672.5525    7.7743e-17
7675.2846    7.6009e-17
7678.0166    7.5671e-17
7680.7487    7.1363e-17
7683.4807    8.0304e-17
7686.2128    8.6388e-17
7688.9448    8.1121e-17
7691.6769    8.2936e-17
7694.4089    8.2238e-17
7697.1410    7.7023e-17
7699.8730    8.1692e-17
7702.6051    8.2839e-17
7705.3371    7.8519e-17
7708.0692    8.6950e-17
7710.8013    8.7683e-17
7713.5333    7.8736e-17
7716.2654    7.9252e-17
7718.9974    8.8571e-17
7721.7295    8.7986e-17
7724.4615    8.2971e-17
7727.1936    8.7111e-17
7729.9256    8.5480e-17
7732.6577    8.1327e-17
7735.3897    8.2021e-17
7738.1218    8.6249e-17
7740.8538    8.4855e-17
7743.5859    8.6704e-17
7746.3179    8.4510e-17
7749.0500    7.5272e-17
7751.7820    7.3434e-17
7754.5141    7.3030e-17
7757.2461    7.4305e-17
7759.9782    7.1559e-17
7762.7102    7.6262e-17
7765.4423    7.8912e-17
7768.1743    7.9364e-17
7770.9064    7.7214e-17
7773.6384    8.4386e-17
7776.3705    7.7189e-17
7779.1025    8.3167e-17
7781.8346    7.8380e-17
7784.5666    8.4355e-17
7787.2987    7.7288e-17
7790.0307    6.8921e-17
7792.7628    7.4967e-17
7795.4948    8.0794e-17
7798.2269    8.4426e-17
7800.9590    8.4124e-17
7803.6910    7.9252e-17
7806.4231    7.5959e-17
7809.1551    7.5916e-17
7811.8872    8.1262e-17
7814.6192    7.8614e-17
7817.3513    7.0324e-17
7820.0833    7.7654e-17
7822.8154    7.6027e-17
7825.5474    8.3235e-17
7828.2795    8.1542e-17
7831.0115    7.5301e-17
7833.7436    7.3096e-17
7836.4756    8.0413e-17
7839.2077    8.0417e-17
7841.9397    7.6360e-17
7844.6718    6.9323e-17
7847.4038    6.7453e-17
7850.1359    6.8809e-17
7852.8679    7.6014e-17
7855.6000    7.9325e-17
7858.3320    7.4303e-17
7861.0641    6.9207e-17
7863.7961    6.6198e-17
7866.5282    7.1589e-17
7869.2602    7.6648e-17
7871.9923    7.6400e-17
7874.7243    7.4400e-17
7877.4564    7.3732e-17
7880.1884    7.0920e-17
7882.9205    7.0246e-17
7885.6526    7.6238e-17
7888.3846    7.8624e-17
7891.1167    8.2258e-17
7893.8487    7.4859e-17
7896.5808    7.4425e-17
7899.3128    7.8725e-17
7902.0449    7.4867e-17
7904.7769    7.5100e-17
7907.5090    7.7519e-17
7910.2410    7.2267e-17
7912.9731    7.1704e-17
7915.7051    7.4958e-17
7918.4372    7.0897e-17
7921.1692    7.1009e-17
7923.9013    7.2957e-17
7926.6333    7.0106e-17
7929.3654    8.0548e-17
7932.0974    8.3639e-17
7934.8295    8.0346e-17
7937.5615    8.0998e-17
7940.2936    7.5496e-17
7943.0256    7.8536e-17
7945.7577    7.6164e-17
7948.4897    6.6179e-17
7951.2218    7.1699e-17
7953.9538    6.9727e-17
7956.6859    6.8902e-17
7959.4179    7.6636e-17
7962.1500    7.8103e-17
7964.8820    8.0048e-17
7967.6141    8.3744e-17
7970.3462    7.6131e-17
7973.0782    7.2315e-17
7975.8103    7.7115e-17
7978.5423    7.0004e-17
7981.2744    6.8763e-17
7984.0064    7.4225e-17
7986.7385    7.8493e-17
7989.4705    6.5379e-17
